x_original,nm,cm^-1,intensity
950.00,924.50,1918.28,11973.00
949.95,924.46,1917.79,11960.00
949.90,924.42,1917.30,12038.00
949.84,924.38,1916.81,12030.00
949.79,924.33,1916.32,11976.00
949.74,924.29,1915.83,12000.00
949.69,924.25,1915.34,12008.00
949.64,924.21,1914.85,11959.00
949.58,924.17,1914.36,12002.00
949.53,924.12,1913.87,11952.00
949.48,924.08,1913.38,11985.00
949.43,924.04,1912.89,11952.00
949.37,924.00,1912.40,11930.00
949.32,923.96,1911.91,11955.00
949.27,923.91,1911.42,11905.00
949.22,923.87,1910.93,11914.00
949.17,923.83,1910.44,12007.00
949.11,923.79,1909.95,11915.00
949.06,923.75,1909.46,11830.00
949.01,923.70,1908.97,11920.00
948.96,923.66,1908.48,11951.00
948.91,923.62,1907.99,11917.00
948.85,923.58,1907.49,11926.00
948.80,923.54,1907.00,11938.00
948.75,923.49,1906.51,11888.00
948.70,923.45,1906.02,11823.00
948.65,923.41,1905.53,11848.00
948.59,923.37,1905.04,11859.00
948.54,923.33,1904.55,11922.00
948.49,923.28,1904.06,11837.00
948.44,923.24,1903.57,11709.00
948.38,923.20,1903.08,11803.00
948.33,923.16,1902.59,11814.00
948.28,923.12,1902.10,11795.00
948.23,923.07,1901.60,11809.00
948.18,923.03,1901.11,11751.00
948.12,922.99,1900.62,11791.00
948.07,922.95,1900.13,11797.00
948.02,922.91,1899.64,11769.00
947.97,922.86,1899.15,11753.00
947.92,922.82,1898.66,11821.00
947.86,922.78,1898.17,11750.00
947.81,922.74,1897.67,11776.00
947.76,922.70,1897.18,11788.00
947.71,922.66,1896.69,11740.00
947.66,922.61,1896.20,11731.00
947.60,922.57,1895.71,11770.00
947.55,922.53,1895.22,11801.00
947.50,922.49,1894.72,11756.00
947.45,922.45,1894.23,11722.00
947.40,922.40,1893.74,11697.00
947.34,922.36,1893.25,11680.00
947.29,922.32,1892.76,11685.00
947.24,922.28,1892.26,11721.00
947.19,922.24,1891.77,11646.00
947.13,922.19,1891.28,11724.00
947.08,922.15,1890.79,11689.00
947.03,922.11,1890.30,11684.00
946.98,922.07,1889.80,11682.00
946.93,922.03,1889.31,11640.00
946.87,921.98,1888.82,11620.00
946.82,921.94,1888.33,11582.00
946.77,921.90,1887.84,11614.00
946.72,921.86,1887.34,11615.00
946.67,921.82,1886.85,11635.00
946.61,921.77,1886.36,11657.00
946.56,921.73,1885.87,11615.00
946.51,921.69,1885.37,11638.00
946.46,921.65,1884.88,11524.00
946.41,921.61,1884.39,11636.00
946.35,921.56,1883.89,11519.00
946.30,921.52,1883.40,11541.00
946.25,921.48,1882.91,11660.00
946.20,921.44,1882.42,11520.00
946.14,921.40,1881.92,11522.00
946.09,921.35,1881.43,11533.00
946.04,921.31,1880.94,11591.00
945.99,921.27,1880.44,11531.00
945.94,921.23,1879.95,11534.00
945.88,921.19,1879.46,11533.00
945.83,921.15,1878.97,11491.00
945.78,921.10,1878.47,11489.00
945.73,921.06,1877.98,11545.00
945.68,921.02,1877.49,11505.00
945.62,920.98,1876.99,11489.00
945.57,920.94,1876.50,11428.00
945.52,920.89,1876.01,11418.00
945.47,920.85,1875.51,11432.00
945.42,920.81,1875.02,11441.00
945.36,920.77,1874.52,11439.00
945.31,920.73,1874.03,11400.00
945.26,920.68,1873.54,11379.00
945.21,920.64,1873.04,11403.00
945.15,920.60,1872.55,11411.00
945.10,920.56,1872.06,11417.00
945.05,920.52,1871.56,11399.00
945.00,920.47,1871.07,11369.00
944.95,920.43,1870.57,11417.00
944.89,920.39,1870.08,11306.00
944.84,920.35,1869.59,11287.00
944.79,920.31,1869.09,11355.00
944.74,920.26,1868.60,11360.00
944.69,920.22,1868.10,11329.00
944.63,920.18,1867.61,11426.00
944.58,920.14,1867.12,11290.00
944.53,920.10,1866.62,11305.00
944.48,920.05,1866.13,11300.00
944.43,920.01,1865.63,11305.00
944.37,919.97,1865.14,11214.00
944.32,919.93,1864.64,11265.00
944.27,919.89,1864.15,11311.00
944.22,919.84,1863.65,11257.00
944.17,919.80,1863.16,11248.00
944.11,919.76,1862.67,11313.00
944.06,919.72,1862.17,11248.00
944.01,919.68,1861.68,11218.00
943.96,919.64,1861.18,11169.00
943.90,919.59,1860.69,11279.00
943.85,919.55,1860.19,11281.00
943.80,919.51,1859.70,11253.00
943.75,919.47,1859.20,11146.00
943.70,919.43,1858.71,11185.00
943.64,919.38,1858.21,11176.00
943.59,919.34,1857.72,11232.00
943.54,919.30,1857.22,11159.00
943.49,919.26,1856.73,11130.00
943.44,919.22,1856.23,11163.00
943.38,919.17,1855.74,11203.00
943.33,919.13,1855.24,11112.00
943.28,919.09,1854.74,11158.00
943.23,919.05,1854.25,11112.00
943.18,919.01,1853.75,11123.00
943.12,918.96,1853.26,11094.00
943.07,918.92,1852.76,11219.00
943.02,918.88,1852.27,11216.00
942.97,918.84,1851.77,11099.00
942.91,918.80,1851.28,11095.00
942.86,918.75,1850.78,11119.00
942.81,918.71,1850.28,11093.00
942.76,918.67,1849.79,11065.00
942.71,918.63,1849.29,11089.00
942.65,918.59,1848.80,11047.00
942.60,918.54,1848.30,11100.00
942.55,918.50,1847.80,11054.00
942.50,918.46,1847.31,11049.00
942.45,918.42,1846.81,11105.00
942.39,918.38,1846.32,11065.00
942.34,918.33,1845.82,11024.00
942.29,918.29,1845.32,11026.00
942.24,918.25,1844.83,11039.00
942.19,918.21,1844.33,11098.00
942.13,918.17,1843.84,10970.00
942.08,918.12,1843.34,10986.00
942.03,918.08,1842.84,10915.00
941.98,918.04,1842.35,10997.00
941.92,918.00,1841.85,10989.00
941.87,917.96,1841.35,10997.00
941.82,917.92,1840.86,10955.00
941.77,917.87,1840.36,10880.00
941.72,917.83,1839.86,10977.00
941.66,917.79,1839.37,10999.00
941.61,917.75,1838.87,10935.00
941.56,917.71,1838.37,10859.00
941.51,917.66,1837.88,10941.00
941.46,917.62,1837.38,10899.00
941.40,917.58,1836.88,10895.00
941.35,917.54,1836.38,10918.00
941.30,917.50,1835.89,10868.00
941.25,917.45,1835.39,10907.00
941.20,917.41,1834.89,10887.00
941.14,917.37,1834.40,10948.00
941.09,917.33,1833.90,10914.00
941.04,917.29,1833.40,10842.00
940.99,917.24,1832.90,10881.00
940.94,917.20,1832.41,10841.00
940.88,917.16,1831.91,10833.00
940.83,917.12,1831.41,10845.00
940.78,917.08,1830.91,10903.00
940.73,917.03,1830.42,10855.00
940.67,916.99,1829.92,10802.00
940.62,916.95,1829.42,10844.00
940.57,916.91,1828.92,10827.00
940.52,916.87,1828.43,10762.00
940.47,916.82,1827.93,10859.00
940.41,916.78,1827.43,10841.00
940.36,916.74,1826.93,10786.00
940.31,916.70,1826.43,10845.00
940.26,916.66,1825.94,10824.00
940.21,916.61,1825.44,10783.00
940.15,916.57,1824.94,10865.00
940.10,916.53,1824.44,10762.00
940.05,916.49,1823.94,10783.00
940.00,916.45,1823.44,10753.00
939.95,916.41,1822.95,10852.00
939.89,916.36,1822.45,10849.00
939.84,916.32,1821.95,10788.00
939.79,916.28,1821.45,10735.00
939.74,916.24,1820.95,10764.00
939.68,916.20,1820.45,10769.00
939.63,916.15,1819.96,10757.00
939.58,916.11,1819.46,10805.00
939.53,916.07,1818.96,10781.00
939.48,916.03,1818.46,10731.00
939.42,915.99,1817.96,10758.00
939.37,915.94,1817.46,10709.00
939.32,915.90,1816.96,10723.00
939.27,915.86,1816.46,10779.00
939.22,915.82,1815.97,10741.00
939.16,915.78,1815.47,10678.00
939.11,915.73,1814.97,10761.00
939.06,915.69,1814.47,10671.00
939.01,915.65,1813.97,10708.00
938.96,915.61,1813.47,10709.00
938.90,915.57,1812.97,10601.00
938.85,915.52,1812.47,10744.00
938.80,915.48,1811.97,10659.00
938.75,915.44,1811.47,10605.00
938.69,915.40,1810.97,10656.00
938.64,915.36,1810.47,10641.00
938.59,915.31,1809.98,10685.00
938.54,915.27,1809.48,10623.00
938.49,915.23,1808.98,10663.00
938.43,915.19,1808.48,10696.00
938.38,915.15,1807.98,10710.00
938.33,915.10,1807.48,10643.00
938.28,915.06,1806.98,10668.00
938.23,915.02,1806.48,10678.00
938.17,914.98,1805.98,10654.00
938.12,914.94,1805.48,10643.00
938.07,914.89,1804.98,10718.00
938.02,914.85,1804.48,10641.00
937.97,914.81,1803.98,10655.00
937.91,914.77,1803.48,10625.00
937.86,914.73,1802.98,10708.00
937.81,914.69,1802.48,10674.00
937.76,914.64,1801.98,10701.00
937.71,914.60,1801.48,10649.00
937.65,914.56,1800.98,10631.00
937.60,914.52,1800.48,10663.00
937.55,914.48,1799.98,10678.00
937.50,914.43,1799.48,10694.00
937.44,914.39,1798.98,10669.00
937.39,914.35,1798.47,10682.00
937.34,914.31,1797.97,10660.00
937.29,914.27,1797.47,10714.00
937.24,914.22,1796.97,10676.00
937.18,914.18,1796.47,10634.00
937.13,914.14,1795.97,10688.00
937.08,914.10,1795.47,10646.00
937.03,914.06,1794.97,10656.00
936.98,914.01,1794.47,10624.00
936.92,913.97,1793.97,10656.00
936.87,913.93,1793.47,10707.00
936.82,913.89,1792.97,10623.00
936.77,913.85,1792.47,10693.00
936.72,913.80,1791.96,10685.00
936.66,913.76,1791.46,10605.00
936.61,913.72,1790.96,10655.00
936.56,913.68,1790.46,10651.00
936.51,913.64,1789.96,10612.00
936.45,913.59,1789.46,10614.00
936.40,913.55,1788.96,10689.00
936.35,913.51,1788.45,10647.00
936.30,913.47,1787.95,10609.00
936.25,913.43,1787.45,10670.00
936.19,913.38,1786.95,10628.00
936.14,913.34,1786.45,10608.00
936.09,913.30,1785.95,10636.00
936.04,913.26,1785.45,10629.00
935.99,913.22,1784.94,10745.00
935.93,913.18,1784.44,10575.00
935.88,913.13,1783.94,10643.00
935.83,913.09,1783.44,10598.00
935.78,913.05,1782.94,10669.00
935.73,913.01,1782.43,10671.00
935.67,912.97,1781.93,10605.00
935.62,912.92,1781.43,10654.00
935.57,912.88,1780.93,10710.00
935.52,912.84,1780.43,10687.00
935.46,912.80,1779.92,10663.00
935.41,912.76,1779.42,10658.00
935.36,912.71,1778.92,10666.00
935.31,912.67,1778.42,10666.00
935.26,912.63,1777.91,10654.00
935.20,912.59,1777.41,10628.00
935.15,912.55,1776.91,10636.00
935.10,912.50,1776.41,10676.00
935.05,912.46,1775.90,10660.00
935.00,912.42,1775.40,10648.00
934.94,912.38,1774.90,10717.00
934.89,912.34,1774.40,10693.00
934.84,912.29,1773.89,10682.00
934.79,912.25,1773.39,10695.00
934.74,912.21,1772.89,10715.00
934.68,912.17,1772.38,10710.00
934.63,912.13,1771.88,10618.00
934.58,912.08,1771.38,10665.00
934.53,912.04,1770.88,10702.00
934.48,912.00,1770.37,10626.00
934.42,911.96,1769.87,10594.00
934.37,911.92,1769.37,10584.00
934.32,911.87,1768.86,10720.00
934.27,911.83,1768.36,10689.00
934.21,911.79,1767.86,10728.00
934.16,911.75,1767.35,10612.00
934.11,911.71,1766.85,10688.00
934.06,911.67,1766.35,10634.00
934.01,911.62,1765.84,10653.00
933.95,911.58,1765.34,10683.00
933.90,911.54,1764.83,10618.00
933.85,911.50,1764.33,10644.00
933.80,911.46,1763.83,10689.00
933.75,911.41,1763.32,10641.00
933.69,911.37,1762.82,10683.00
933.64,911.33,1762.32,10636.00
933.59,911.29,1761.81,10653.00
933.54,911.25,1761.31,10685.00
933.49,911.20,1760.80,10661.00
933.43,911.16,1760.30,10647.00
933.38,911.12,1759.80,10664.00
933.33,911.08,1759.29,10605.00
933.28,911.04,1758.79,10699.00
933.22,910.99,1758.28,10652.00
933.17,910.95,1757.78,10647.00
933.12,910.91,1757.28,10657.00
933.07,910.87,1756.77,10622.00
933.02,910.83,1756.27,10563.00
932.96,910.78,1755.76,10587.00
932.91,910.74,1755.26,10655.00
932.86,910.70,1754.75,10676.00
932.81,910.66,1754.25,10631.00
932.76,910.62,1753.74,10623.00
932.70,910.57,1753.24,10667.00
932.65,910.53,1752.73,10695.00
932.60,910.49,1752.23,10700.00
932.55,910.45,1751.72,10630.00
932.50,910.41,1751.22,10581.00
932.44,910.36,1750.71,10628.00
932.39,910.32,1750.21,10628.00
932.34,910.28,1749.70,10629.00
932.29,910.24,1749.20,10679.00
932.23,910.20,1748.69,10601.00
932.18,910.15,1748.19,10637.00
932.13,910.11,1747.68,10693.00
932.08,910.07,1747.18,10644.00
932.03,910.03,1746.67,10651.00
931.97,909.99,1746.17,10638.00
931.92,909.95,1745.66,10684.00
931.87,909.90,1745.16,10662.00
931.82,909.86,1744.65,10740.00
931.77,909.82,1744.15,10630.00
931.71,909.78,1743.64,10632.00
931.66,909.74,1743.14,10651.00
931.61,909.69,1742.63,10689.00
931.56,909.65,1742.12,10645.00
931.51,909.61,1741.62,10675.00
931.45,909.57,1741.11,10563.00
931.40,909.53,1740.61,10651.00
931.35,909.48,1740.10,10657.00
931.30,909.44,1739.60,10573.00
931.25,909.40,1739.09,10622.00
931.19,909.36,1738.58,10631.00
931.14,909.32,1738.08,10706.00
931.09,909.27,1737.57,10705.00
931.04,909.23,1737.06,10681.00
930.98,909.19,1736.56,10636.00
930.93,909.15,1736.05,10673.00
930.88,909.11,1735.55,10570.00
930.83,909.06,1735.04,10603.00
930.78,909.02,1734.53,10614.00
930.72,908.98,1734.03,10654.00
930.67,908.94,1733.52,10712.00
930.62,908.90,1733.01,10610.00
930.57,908.85,1732.51,10642.00
930.52,908.81,1732.00,10638.00
930.46,908.77,1731.49,10577.00
930.41,908.73,1730.99,10661.00
930.36,908.69,1730.48,10667.00
930.31,908.64,1729.97,10668.00
930.26,908.60,1729.47,10617.00
930.20,908.56,1728.96,10654.00
930.15,908.52,1728.45,10701.00
930.10,908.48,1727.95,10654.00
930.05,908.44,1727.44,10659.00
929.99,908.39,1726.93,10686.00
929.94,908.35,1726.42,10656.00
929.89,908.31,1725.92,10614.00
929.84,908.27,1725.41,10651.00
929.79,908.23,1724.90,10683.00
929.73,908.18,1724.40,10702.00
929.68,908.14,1723.89,10612.00
929.63,908.10,1723.38,10629.00
929.58,908.06,1722.87,10680.00
929.53,908.02,1722.37,10676.00
929.47,907.97,1721.86,10665.00
929.42,907.93,1721.35,10662.00
929.37,907.89,1720.84,10633.00
929.32,907.85,1720.33,10673.00
929.27,907.81,1719.83,10624.00
929.21,907.76,1719.32,10657.00
929.16,907.72,1718.81,10621.00
929.11,907.68,1718.30,10660.00
929.06,907.64,1717.80,10628.00
929.00,907.60,1717.29,10632.00
928.95,907.55,1716.78,10695.00
928.90,907.51,1716.27,10674.00
928.85,907.47,1715.76,10579.00
928.80,907.43,1715.25,10681.00
928.74,907.39,1714.75,10701.00
928.69,907.34,1714.24,10650.00
928.64,907.30,1713.73,10599.00
928.59,907.26,1713.22,10679.00
928.54,907.22,1712.71,10681.00
928.48,907.18,1712.20,10667.00
928.43,907.13,1711.70,10597.00
928.38,907.09,1711.19,10672.00
928.33,907.05,1710.68,10670.00
928.28,907.01,1710.17,10638.00
928.22,906.97,1709.66,10653.00
928.17,906.93,1709.15,10638.00
928.12,906.88,1708.64,10593.00
928.07,906.84,1708.14,10677.00
928.02,906.80,1707.63,10641.00
927.96,906.76,1707.12,10629.00
927.91,906.72,1706.61,10588.00
927.86,906.67,1706.10,10572.00
927.81,906.63,1705.59,10610.00
927.75,906.59,1705.08,10647.00
927.70,906.55,1704.57,10667.00
927.65,906.51,1704.06,10692.00
927.60,906.46,1703.55,10605.00
927.55,906.42,1703.04,10591.00
927.49,906.38,1702.54,10623.00
927.44,906.34,1702.03,10642.00
927.39,906.30,1701.52,10678.00
927.34,906.25,1701.01,10572.00
927.29,906.21,1700.50,10561.00
927.23,906.17,1699.99,10614.00
927.18,906.13,1699.48,10634.00
927.13,906.09,1698.97,10653.00
927.08,906.04,1698.46,10610.00
927.03,906.00,1697.95,10622.00
926.97,905.96,1697.44,10577.00
926.92,905.92,1696.93,10520.00
926.87,905.88,1696.42,10550.00
926.82,905.83,1695.91,10620.00
926.76,905.79,1695.40,10555.00
926.71,905.75,1694.89,10598.00
926.66,905.71,1694.38,10597.00
926.61,905.67,1693.87,10595.00
926.56,905.62,1693.36,10559.00
926.50,905.58,1692.85,10605.00
926.45,905.54,1692.34,10574.00
926.40,905.50,1691.83,10645.00
926.35,905.46,1691.32,10583.00
926.30,905.41,1690.81,10626.00
926.24,905.37,1690.30,10573.00
926.19,905.33,1689.79,10547.00
926.14,905.29,1689.28,10497.00
926.09,905.25,1688.76,10558.00
926.04,905.21,1688.25,10574.00
925.98,905.16,1687.74,10517.00
925.93,905.12,1687.23,10496.00
925.88,905.08,1686.72,10550.00
925.83,905.04,1686.21,10489.00
925.77,905.00,1685.70,10567.00
925.72,904.95,1685.19,10547.00
925.67,904.91,1684.68,10519.00
925.62,904.87,1684.17,10532.00
925.57,904.83,1683.66,10478.00
925.51,904.79,1683.14,10532.00
925.46,904.74,1682.63,10477.00
925.41,904.70,1682.12,10442.00
925.36,904.66,1681.61,10494.00
925.31,904.62,1681.10,10426.00
925.25,904.58,1680.59,10414.00
925.20,904.53,1680.08,10416.00
925.15,904.49,1679.56,10425.00
925.10,904.45,1679.05,10390.00
925.05,904.41,1678.54,10407.00
924.99,904.37,1678.03,10427.00
924.94,904.32,1677.52,10435.00
924.89,904.28,1677.01,10435.00
924.84,904.24,1676.49,10321.00
924.79,904.20,1675.98,10375.00
924.73,904.16,1675.47,10361.00
924.68,904.11,1674.96,10358.00
924.63,904.07,1674.45,10361.00
924.58,904.03,1673.94,10337.00
924.52,903.99,1673.42,10349.00
924.47,903.95,1672.91,10313.00
924.42,903.90,1672.40,10298.00
924.37,903.86,1671.89,10302.00
924.32,903.82,1671.37,10302.00
924.26,903.78,1670.86,10271.00
924.21,903.74,1670.35,10238.00
924.16,903.70,1669.84,10241.00
924.11,903.65,1669.32,10217.00
924.06,903.61,1668.81,10214.00
924.00,903.57,1668.30,10214.00
923.95,903.53,1667.79,10201.00
923.90,903.49,1667.27,10217.00
923.85,903.44,1666.76,10189.00
923.80,903.40,1666.25,10159.00
923.74,903.36,1665.74,10157.00
923.69,903.32,1665.22,10138.00
923.64,903.28,1664.71,10113.00
923.59,903.23,1664.20,10160.00
923.53,903.19,1663.68,10031.00
923.48,903.15,1663.17,10137.00
923.43,903.11,1662.66,10074.00
923.38,903.07,1662.15,10113.00
923.33,903.02,1661.63,10127.00
923.27,902.98,1661.12,10093.00
923.22,902.94,1660.61,10089.00
923.17,902.90,1660.09,10096.00
923.12,902.86,1659.58,10043.00
923.07,902.81,1659.07,10103.00
923.01,902.77,1658.55,10016.00
922.96,902.73,1658.04,10102.00
922.91,902.69,1657.53,10045.00
922.86,902.65,1657.01,10054.00
922.81,902.60,1656.50,10068.00
922.75,902.56,1655.98,10100.00
922.70,902.52,1655.47,10064.00
922.65,902.48,1654.96,10127.00
922.60,902.44,1654.44,10023.00
922.54,902.39,1653.93,10073.00
922.49,902.35,1653.42,10084.00
922.44,902.31,1652.90,10103.00
922.39,902.27,1652.39,10089.00
922.34,902.23,1651.87,10071.00
922.28,902.18,1651.36,10050.00
922.23,902.14,1650.85,10126.00
922.18,902.10,1650.33,10115.00
922.13,902.06,1649.82,10119.00
922.08,902.02,1649.30,10140.00
922.02,901.98,1648.79,10114.00
921.97,901.93,1648.27,10110.00
921.92,901.89,1647.76,10068.00
921.87,901.85,1647.24,10033.00
921.82,901.81,1646.73,10097.00
921.76,901.77,1646.22,10048.00
921.71,901.72,1645.70,9993.00
921.66,901.68,1645.19,10025.00
921.61,901.64,1644.67,10018.00
921.56,901.60,1644.16,9971.00
921.50,901.56,1643.64,9932.00
921.45,901.51,1643.13,9962.00
921.40,901.47,1642.61,10030.00
921.35,901.43,1642.10,10002.00
921.29,901.39,1641.58,9979.00
921.24,901.35,1641.07,9939.00
921.19,901.30,1640.55,9979.00
921.14,901.26,1640.04,9927.00
921.09,901.22,1639.52,9925.00
921.03,901.18,1639.01,9931.00
920.98,901.14,1638.49,9853.00
920.93,901.09,1637.98,9891.00
920.88,901.05,1637.46,9906.00
920.83,901.01,1636.94,9893.00
920.77,900.97,1636.43,9919.00
920.72,900.93,1635.91,9889.00
920.67,900.88,1635.40,9863.00
920.62,900.84,1634.88,9849.00
920.57,900.80,1634.37,9847.00
920.51,900.76,1633.85,9888.00
920.46,900.72,1633.34,9864.00
920.41,900.67,1632.82,9880.00
920.36,900.63,1632.30,9904.00
920.30,900.59,1631.79,9862.00
920.25,900.55,1631.27,9887.00
920.20,900.51,1630.76,9815.00
920.15,900.47,1630.24,9813.00
920.10,900.42,1629.72,9807.00
920.04,900.38,1629.21,9855.00
919.99,900.34,1628.69,9750.00
919.94,900.30,1628.17,9838.00
919.89,900.26,1627.66,9807.00
919.84,900.21,1627.14,9789.00
919.78,900.17,1626.63,9800.00
919.73,900.13,1626.11,9826.00
919.68,900.09,1625.59,9778.00
919.63,900.05,1625.08,9746.00
919.58,900.00,1624.56,9816.00
919.52,899.96,1624.04,9839.00
919.47,899.92,1623.53,9821.00
919.42,899.88,1623.01,9787.00
919.37,899.84,1622.49,9781.00
919.31,899.79,1621.98,9762.00
919.26,899.75,1621.46,9804.00
919.21,899.71,1620.94,9768.00
919.16,899.67,1620.43,9769.00
919.11,899.63,1619.91,9757.00
919.05,899.58,1619.39,9743.00
919.00,899.54,1618.87,9775.00
918.95,899.50,1618.36,9766.00
918.90,899.46,1617.84,9802.00
918.85,899.42,1617.32,9768.00
918.79,899.37,1616.80,9723.00
918.74,899.33,1616.29,9738.00
918.69,899.29,1615.77,9770.00
918.64,899.25,1615.25,9690.00
918.59,899.21,1614.74,9745.00
918.53,899.16,1614.22,9751.00
918.48,899.12,1613.70,9734.00
918.43,899.08,1613.18,9749.00
918.38,899.04,1612.66,9785.00
918.33,899.00,1612.15,9648.00
918.27,898.96,1611.63,9755.00
918.22,898.91,1611.11,9675.00
918.17,898.87,1610.59,9705.00
918.12,898.83,1610.08,9727.00
918.06,898.79,1609.56,9677.00
918.01,898.75,1609.04,9652.00
917.96,898.70,1608.52,9738.00
917.91,898.66,1608.00,9671.00
917.86,898.62,1607.48,9742.00
917.80,898.58,1606.97,9650.00
917.75,898.54,1606.45,9716.00
917.70,898.49,1605.93,9716.00
917.65,898.45,1605.41,9728.00
917.60,898.41,1604.89,9696.00
917.54,898.37,1604.37,9658.00
917.49,898.33,1603.86,9623.00
917.44,898.28,1603.34,9671.00
917.39,898.24,1602.82,9665.00
917.34,898.20,1602.30,9640.00
917.28,898.16,1601.78,9595.00
917.23,898.12,1601.26,9725.00
917.18,898.07,1600.74,9654.00
917.13,898.03,1600.22,9640.00
917.07,897.99,1599.71,9716.00
917.02,897.95,1599.19,9741.00
916.97,897.91,1598.67,9656.00
916.92,897.86,1598.15,9647.00
916.87,897.82,1597.63,9602.00
916.81,897.78,1597.11,9624.00
916.76,897.74,1596.59,9626.00
916.71,897.70,1596.07,9578.00
916.66,897.65,1595.55,9674.00
916.61,897.61,1595.03,9572.00
916.55,897.57,1594.51,9607.00
916.50,897.53,1593.99,9596.00
916.45,897.49,1593.47,9589.00
916.40,897.44,1592.96,9665.00
916.35,897.40,1592.44,9505.00
916.29,897.36,1591.92,9587.00
916.24,897.32,1591.40,9474.00
916.19,897.28,1590.88,9546.00
916.14,897.24,1590.36,9599.00
916.08,897.19,1589.84,9625.00
916.03,897.15,1589.32,9580.00
915.98,897.11,1588.80,9633.00
915.93,897.07,1588.28,9624.00
915.88,897.03,1587.76,9578.00
915.82,896.98,1587.24,9548.00
915.77,896.94,1586.72,9570.00
915.72,896.90,1586.20,9605.00
915.67,896.86,1585.68,9543.00
915.62,896.82,1585.16,9627.00
915.56,896.77,1584.64,9554.00
915.51,896.73,1584.12,9533.00
915.46,896.69,1583.60,9612.00
915.41,896.65,1583.07,9521.00
915.36,896.61,1582.55,9558.00
915.30,896.56,1582.03,9542.00
915.25,896.52,1581.51,9520.00
915.20,896.48,1580.99,9542.00
915.15,896.44,1580.47,9618.00
915.10,896.40,1579.95,9469.00
915.04,896.35,1579.43,9535.00
914.99,896.31,1578.91,9507.00
914.94,896.27,1578.39,9479.00
914.89,896.23,1577.87,9492.00
914.83,896.19,1577.35,9562.00
914.78,896.14,1576.83,9514.00
914.73,896.10,1576.30,9522.00
914.68,896.06,1575.78,9500.00
914.63,896.02,1575.26,9540.00
914.57,895.98,1574.74,9515.00
914.52,895.93,1574.22,9473.00
914.47,895.89,1573.70,9567.00
914.42,895.85,1573.18,9523.00
914.37,895.81,1572.65,9498.00
914.31,895.77,1572.13,9541.00
914.26,895.73,1571.61,9438.00
914.21,895.68,1571.09,9516.00
914.16,895.64,1570.57,9491.00
914.11,895.60,1570.05,9497.00
914.05,895.56,1569.53,9529.00
914.00,895.52,1569.00,9515.00
913.95,895.47,1568.48,9538.00
913.90,895.43,1567.96,9546.00
913.84,895.39,1567.44,9472.00
913.79,895.35,1566.92,9450.00
913.74,895.31,1566.39,9534.00
913.69,895.26,1565.87,9468.00
913.64,895.22,1565.35,9550.00
913.58,895.18,1564.83,9486.00
913.53,895.14,1564.30,9522.00
913.48,895.10,1563.78,9514.00
913.43,895.05,1563.26,9478.00
913.38,895.01,1562.74,9469.00
913.32,894.97,1562.22,9507.00
913.27,894.93,1561.69,9484.00
913.22,894.89,1561.17,9468.00
913.17,894.84,1560.65,9518.00
913.12,894.80,1560.13,9443.00
913.06,894.76,1559.60,9473.00
913.01,894.72,1559.08,9444.00
912.96,894.68,1558.56,9458.00
912.91,894.63,1558.03,9492.00
912.85,894.59,1557.51,9491.00
912.80,894.55,1556.99,9487.00
912.75,894.51,1556.47,9394.00
912.70,894.47,1555.94,9382.00
912.65,894.42,1555.42,9425.00
912.59,894.38,1554.90,9448.00
912.54,894.34,1554.37,9351.00
912.49,894.30,1553.85,9403.00
912.44,894.26,1553.33,9400.00
912.39,894.22,1552.80,9392.00
912.33,894.17,1552.28,9375.00
912.28,894.13,1551.76,9328.00
912.23,894.09,1551.23,9368.00
912.18,894.05,1550.71,9309.00
912.13,894.01,1550.19,9232.00
912.07,893.96,1549.66,9204.00
912.02,893.92,1549.14,9215.00
911.97,893.88,1548.61,9090.00
911.92,893.84,1548.09,9117.00
911.87,893.80,1547.57,9021.00
911.81,893.75,1547.04,8959.00
911.76,893.71,1546.52,8905.00
911.71,893.67,1546.00,8844.00
911.66,893.63,1545.47,8788.00
911.60,893.59,1544.95,8772.00
911.55,893.54,1544.42,8617.00
911.50,893.50,1543.90,8575.00
911.45,893.46,1543.38,8492.00
911.40,893.42,1542.85,8442.00
911.34,893.38,1542.33,8230.00
911.29,893.33,1541.80,8235.00
911.24,893.29,1541.28,8137.00
911.19,893.25,1540.75,8105.00
911.14,893.21,1540.23,7986.00
911.08,893.17,1539.70,8008.00
911.03,893.12,1539.18,7892.00
910.98,893.08,1538.66,7937.00
910.93,893.04,1538.13,7876.00
910.88,893.00,1537.61,7870.00
910.82,892.96,1537.08,7895.00
910.77,892.91,1536.56,7843.00
910.72,892.87,1536.03,7838.00
910.67,892.83,1535.51,7828.00
910.61,892.79,1534.98,7844.00
910.56,892.75,1534.46,7889.00
910.51,892.70,1533.93,7896.00
910.46,892.66,1533.41,7955.00
910.41,892.62,1532.88,7960.00
910.35,892.58,1532.36,8007.00
910.30,892.54,1531.83,8092.00
910.25,892.50,1531.30,8208.00
910.20,892.45,1530.78,8243.00
910.15,892.41,1530.25,8324.00
910.09,892.37,1529.73,8387.00
910.04,892.33,1529.20,8480.00
909.99,892.29,1528.68,8559.00
909.94,892.24,1528.15,8682.00
909.89,892.20,1527.63,8645.00
909.83,892.16,1527.10,8792.00
909.78,892.12,1526.57,8802.00
909.73,892.08,1526.05,8896.00
909.68,892.03,1525.52,8937.00
909.62,891.99,1525.00,8955.00
909.57,891.95,1524.47,9022.00
909.52,891.91,1523.95,9022.00
909.47,891.87,1523.42,9050.00
909.42,891.82,1522.89,9107.00
909.36,891.78,1522.37,9132.00
909.31,891.74,1521.84,9187.00
909.26,891.70,1521.31,9154.00
909.21,891.66,1520.79,9184.00
909.16,891.61,1520.26,9154.00
909.10,891.57,1519.74,9206.00
909.05,891.53,1519.21,9210.00
909.00,891.49,1518.68,9265.00
908.95,891.45,1518.16,9252.00
908.90,891.40,1517.63,9321.00
908.84,891.36,1517.10,9334.00
908.79,891.32,1516.58,9323.00
908.74,891.28,1516.05,9330.00
908.69,891.24,1515.52,9322.00
908.64,891.19,1515.00,9336.00
908.58,891.15,1514.47,9339.00
908.53,891.11,1513.94,9333.00
908.48,891.07,1513.41,9336.00
908.43,891.03,1512.89,9359.00
908.37,890.99,1512.36,9315.00
908.32,890.94,1511.83,9381.00
908.27,890.90,1511.31,9385.00
908.22,890.86,1510.78,9401.00
908.17,890.82,1510.25,9304.00
908.11,890.78,1509.72,9369.00
908.06,890.73,1509.20,9325.00
908.01,890.69,1508.67,9272.00
907.96,890.65,1508.14,9346.00
907.91,890.61,1507.61,9327.00
907.85,890.57,1507.09,9388.00
907.80,890.52,1506.56,9386.00
907.75,890.48,1506.03,9377.00
907.70,890.44,1505.50,9381.00
907.65,890.40,1504.98,9409.00
907.59,890.36,1504.45,9389.00
907.54,890.31,1503.92,9444.00
907.49,890.27,1503.39,9411.00
907.44,890.23,1502.86,9396.00
907.38,890.19,1502.34,9394.00
907.33,890.15,1501.81,9374.00
907.28,890.10,1501.28,9382.00
907.23,890.06,1500.75,9460.00
907.18,890.02,1500.22,9369.00
907.12,889.98,1499.69,9357.00
907.07,889.94,1499.17,9426.00
907.02,889.89,1498.64,9351.00
906.97,889.85,1498.11,9378.00
906.92,889.81,1497.58,9359.00
906.86,889.77,1497.05,9359.00
906.81,889.73,1496.52,9373.00
906.76,889.68,1495.99,9411.00
906.71,889.64,1495.47,9376.00
906.66,889.60,1494.94,9430.00
906.60,889.56,1494.41,9368.00
906.55,889.52,1493.88,9403.00
906.50,889.47,1493.35,9401.00
906.45,889.43,1492.82,9295.00
906.39,889.39,1492.29,9423.00
906.34,889.35,1491.76,9393.00
906.29,889.31,1491.23,9370.00
906.24,889.27,1490.71,9310.00
906.19,889.22,1490.18,9393.00
906.13,889.18,1489.65,9426.00
906.08,889.14,1489.12,9419.00
906.03,889.10,1488.59,9470.00
905.98,889.06,1488.06,9462.00
905.93,889.01,1487.53,9362.00
905.87,888.97,1487.00,9422.00
905.82,888.93,1486.47,9379.00
905.77,888.89,1485.94,9449.00
905.72,888.85,1485.41,9452.00
905.67,888.80,1484.88,9453.00
905.61,888.76,1484.35,9474.00
905.56,888.72,1483.82,9448.00
905.51,888.68,1483.29,9436.00
905.46,888.64,1482.76,9433.00
905.41,888.59,1482.23,9496.00
905.35,888.55,1481.70,9394.00
905.30,888.51,1481.17,9447.00
905.25,888.47,1480.64,9438.00
905.20,888.43,1480.11,9369.00
905.14,888.38,1479.58,9422.00
905.09,888.34,1479.05,9425.00
905.04,888.30,1478.52,9417.00
904.99,888.26,1477.99,9439.00
904.94,888.22,1477.46,9418.00
904.88,888.17,1476.93,9429.00
904.83,888.13,1476.40,9422.00
904.78,888.09,1475.87,9470.00
904.73,888.05,1475.34,9386.00
904.68,888.01,1474.81,9417.00
904.62,887.96,1474.28,9374.00
904.57,887.92,1473.75,9386.00
904.52,887.88,1473.22,9430.00
904.47,887.84,1472.68,9366.00
904.42,887.80,1472.15,9375.00
904.36,887.76,1471.62,9359.00
904.31,887.71,1471.09,9377.00
904.26,887.67,1470.56,9301.00
904.21,887.63,1470.03,9368.00
904.15,887.59,1469.50,9389.00
904.10,887.55,1468.97,9396.00
904.05,887.50,1468.44,9417.00
904.00,887.46,1467.90,9428.00
903.95,887.42,1467.37,9412.00
903.89,887.38,1466.84,9435.00
903.84,887.34,1466.31,9361.00
903.79,887.29,1465.78,9395.00
903.74,887.25,1465.25,9416.00
903.69,887.21,1464.72,9360.00
903.63,887.17,1464.18,9393.00
903.58,887.13,1463.65,9382.00
903.53,887.08,1463.12,9341.00
903.48,887.04,1462.59,9394.00
903.43,887.00,1462.06,9386.00
903.37,886.96,1461.52,9374.00
903.32,886.92,1460.99,9333.00
903.27,886.87,1460.46,9313.00
903.22,886.83,1459.93,9356.00
903.16,886.79,1459.40,9344.00
903.11,886.75,1458.86,9296.00
903.06,886.71,1458.33,9425.00
903.01,886.66,1457.80,9449.00
902.96,886.62,1457.27,9423.00
902.90,886.58,1456.74,9381.00
902.85,886.54,1456.20,9475.00
902.80,886.50,1455.67,9465.00
902.75,886.45,1455.14,9354.00
902.70,886.41,1454.61,9384.00
902.64,886.37,1454.07,9390.00
902.59,886.33,1453.54,9384.00
902.54,886.29,1453.01,9449.00
902.49,886.25,1452.47,9434.00
902.44,886.20,1451.94,9400.00
902.38,886.16,1451.41,9402.00
902.33,886.12,1450.88,9381.00
902.28,886.08,1450.34,9412.00
902.23,886.04,1449.81,9434.00
902.18,885.99,1449.28,9338.00
902.12,885.95,1448.74,9434.00
902.07,885.91,1448.21,9421.00
902.02,885.87,1447.68,9415.00
901.97,885.83,1447.14,9383.00
901.91,885.78,1446.61,9378.00
901.86,885.74,1446.08,9381.00
901.81,885.70,1445.54,9478.00
901.76,885.66,1445.01,9416.00
901.71,885.62,1444.48,9395.00
901.65,885.57,1443.94,9389.00
901.60,885.53,1443.41,9419.00
901.55,885.49,1442.88,9396.00
901.50,885.45,1442.34,9389.00
901.45,885.41,1441.81,9368.00
901.39,885.36,1441.27,9402.00
901.34,885.32,1440.74,9310.00
901.29,885.28,1440.21,9352.00
901.24,885.24,1439.67,9388.00
901.19,885.20,1439.14,9377.00
901.13,885.15,1438.60,9359.00
901.08,885.11,1438.07,9326.00
901.03,885.07,1437.54,9390.00
900.98,885.03,1437.00,9381.00
900.92,884.99,1436.47,9355.00
900.87,884.94,1435.93,9330.00
900.82,884.90,1435.40,9351.00
900.77,884.86,1434.86,9324.00
900.72,884.82,1434.33,9287.00
900.66,884.78,1433.80,9367.00
900.61,884.73,1433.26,9338.00
900.56,884.69,1432.73,9260.00
900.51,884.65,1432.19,9307.00
900.46,884.61,1431.66,9177.00
900.40,884.57,1431.12,9284.00
900.35,884.53,1430.59,9233.00
900.30,884.48,1430.05,9188.00
900.25,884.44,1429.52,9196.00
900.20,884.40,1428.98,9212.00
900.14,884.36,1428.45,9176.00
900.09,884.32,1427.91,9174.00
900.04,884.27,1427.38,9213.00
899.99,884.23,1426.84,9138.00
899.93,884.19,1426.31,9132.00
899.88,884.15,1425.77,9115.00
899.83,884.11,1425.24,9095.00
899.78,884.06,1424.70,9060.00
899.73,884.02,1424.17,9060.00
899.67,883.98,1423.63,8975.00
899.62,883.94,1423.09,8924.00
899.57,883.90,1422.56,8928.00
899.52,883.85,1422.02,8933.00
899.47,883.81,1421.49,8835.00
899.41,883.77,1420.95,8856.00
899.36,883.73,1420.42,8727.00
899.31,883.69,1419.88,8645.00
899.26,883.64,1419.34,8659.00
899.21,883.60,1418.81,8618.00
899.15,883.56,1418.27,8557.00
899.10,883.52,1417.74,8491.00
899.05,883.48,1417.20,8455.00
899.00,883.43,1416.66,8338.00
898.95,883.39,1416.13,8403.00
898.89,883.35,1415.59,8269.00
898.84,883.31,1415.05,8311.00
898.79,883.27,1414.52,8233.00
898.74,883.22,1413.98,8141.00
898.68,883.18,1413.45,8134.00
898.63,883.14,1412.91,8034.00
898.58,883.10,1412.37,8019.00
898.53,883.06,1411.84,7997.00
898.48,883.02,1411.30,7986.00
898.42,882.97,1410.76,7936.00
898.37,882.93,1410.23,7932.00
898.32,882.89,1409.69,7812.00
898.27,882.85,1409.15,7849.00
898.22,882.81,1408.61,7834.00
898.16,882.76,1408.08,7841.00
898.11,882.72,1407.54,7812.00
898.06,882.68,1407.00,7854.00
898.01,882.64,1406.47,7804.00
897.96,882.60,1405.93,7858.00
897.90,882.55,1405.39,7914.00
897.85,882.51,1404.85,7902.00
897.80,882.47,1404.32,7841.00
897.75,882.43,1403.78,7851.00
897.69,882.39,1403.24,7860.00
897.64,882.34,1402.71,7906.00
897.59,882.30,1402.17,7951.00
897.54,882.26,1401.63,7961.00
897.49,882.22,1401.09,7915.00
897.43,882.18,1400.55,8058.00
897.38,882.13,1400.02,8004.00
897.33,882.09,1399.48,8033.00
897.28,882.05,1398.94,8054.00
897.23,882.01,1398.40,8106.00
897.17,881.97,1397.87,8097.00
897.12,881.92,1397.33,8093.00
897.07,881.88,1396.79,8076.00
897.02,881.84,1396.25,8142.00
896.97,881.80,1395.71,8171.00
896.91,881.76,1395.18,8165.00
896.86,881.71,1394.64,8145.00
896.81,881.67,1394.10,8187.00
896.76,881.63,1393.56,8179.00
896.70,881.59,1393.02,8223.00
896.65,881.55,1392.48,8262.00
896.60,881.51,1391.94,8256.00
896.55,881.46,1391.41,8213.00
896.50,881.42,1390.87,8263.00
896.44,881.38,1390.33,8279.00
896.39,881.34,1389.79,8328.00
896.34,881.30,1389.25,8323.00
896.29,881.25,1388.71,8346.00
896.24,881.21,1388.17,8307.00
896.18,881.17,1387.63,8329.00
896.13,881.13,1387.10,8279.00
896.08,881.09,1386.56,8291.00
896.03,881.04,1386.02,8289.00
895.98,881.00,1385.48,8266.00
895.92,880.96,1384.94,8281.00
895.87,880.92,1384.40,8320.00
895.82,880.88,1383.86,8326.00
895.77,880.83,1383.32,8262.00
895.72,880.79,1382.78,8297.00
895.66,880.75,1382.24,8276.00
895.61,880.71,1381.70,8269.00
895.56,880.67,1381.16,8287.00
895.51,880.62,1380.62,8202.00
895.45,880.58,1380.08,8245.00
895.40,880.54,1379.54,8248.00
895.35,880.50,1379.00,8296.00
895.30,880.46,1378.47,8234.00
895.25,880.41,1377.93,8264.00
895.19,880.37,1377.39,8231.00
895.14,880.33,1376.85,8233.00
895.09,880.29,1376.31,8243.00
895.04,880.25,1375.77,8292.00
894.99,880.20,1375.23,8233.00
894.93,880.16,1374.69,8225.00
894.88,880.12,1374.14,8175.00
894.83,880.08,1373.60,8228.00
894.78,880.04,1373.06,8197.00
894.73,879.99,1372.52,8253.00
894.67,879.95,1371.98,8189.00
894.62,879.91,1371.44,8194.00
894.57,879.87,1370.90,8179.00
894.52,879.83,1370.36,8234.00
894.46,879.79,1369.82,8180.00
894.41,879.74,1369.28,8162.00
894.36,879.70,1368.74,8179.00
894.31,879.66,1368.20,8253.00
894.26,879.62,1367.66,8224.00
894.20,879.58,1367.12,8167.00
894.15,879.53,1366.58,8189.00
894.10,879.49,1366.04,8207.00
894.05,879.45,1365.49,8196.00
894.00,879.41,1364.95,8204.00
893.94,879.37,1364.41,8193.00
893.89,879.32,1363.87,8189.00
893.84,879.28,1363.33,8173.00
893.79,879.24,1362.79,8137.00
893.74,879.20,1362.25,8146.00
893.68,879.16,1361.71,8224.00
893.63,879.11,1361.16,8150.00
893.58,879.07,1360.62,8153.00
893.53,879.03,1360.08,8101.00
893.47,878.99,1359.54,8154.00
893.42,878.95,1359.00,8126.00
893.37,878.90,1358.46,8138.00
893.32,878.86,1357.91,8135.00
893.27,878.82,1357.37,8219.00
893.21,878.78,1356.83,8111.00
893.16,878.74,1356.29,8150.00
893.11,878.69,1355.75,8110.00
893.06,878.65,1355.21,8111.00
893.01,878.61,1354.66,8142.00
892.95,878.57,1354.12,8129.00
892.90,878.53,1353.58,8135.00
892.85,878.48,1353.04,8088.00
892.80,878.44,1352.49,8115.00
892.75,878.40,1351.95,8137.00
892.69,878.36,1351.41,8089.00
892.64,878.32,1350.87,8143.00
892.59,878.28,1350.32,8138.00
892.54,878.23,1349.78,8069.00
892.49,878.19,1349.24,8120.00
892.43,878.15,1348.70,8151.00
892.38,878.11,1348.15,8174.00
892.33,878.07,1347.61,8086.00
892.28,878.02,1347.07,8077.00
892.22,877.98,1346.53,8093.00
892.17,877.94,1345.98,8070.00
892.12,877.90,1345.44,8091.00
892.07,877.86,1344.90,8100.00
892.02,877.81,1344.35,8080.00
891.96,877.77,1343.81,8091.00
891.91,877.73,1343.27,8106.00
891.86,877.69,1342.72,8035.00
891.81,877.65,1342.18,8074.00
891.76,877.60,1341.64,8058.00
891.70,877.56,1341.09,8069.00
891.65,877.52,1340.55,8009.00
891.60,877.48,1340.01,8055.00
891.55,877.44,1339.46,8037.00
891.50,877.39,1338.92,8063.00
891.44,877.35,1338.38,8037.00
891.39,877.31,1337.83,8059.00
891.34,877.27,1337.29,7993.00
891.29,877.23,1336.75,8024.00
891.23,877.18,1336.20,7953.00
891.18,877.14,1335.66,8058.00
891.13,877.10,1335.11,8016.00
891.08,877.06,1334.57,8010.00
891.03,877.02,1334.03,8005.00
890.97,876.97,1333.48,8013.00
890.92,876.93,1332.94,8000.00
890.87,876.89,1332.39,7983.00
890.82,876.85,1331.85,8037.00
890.77,876.81,1331.30,7995.00
890.71,876.76,1330.76,7967.00
890.66,876.72,1330.22,8016.00
890.61,876.68,1329.67,8021.00
890.56,876.64,1329.13,8004.00
890.51,876.60,1328.58,7973.00
890.45,876.56,1328.04,8011.00
890.40,876.51,1327.49,7925.00
890.35,876.47,1326.95,7944.00
890.30,876.43,1326.40,7931.00
890.24,876.39,1325.86,7925.00
890.19,876.35,1325.31,7924.00
890.14,876.30,1324.77,7947.00
890.09,876.26,1324.22,7940.00
890.04,876.22,1323.68,7941.00
889.98,876.18,1323.13,7945.00
889.93,876.14,1322.59,7918.00
889.88,876.09,1322.04,7961.00
889.83,876.05,1321.50,7908.00
889.78,876.01,1320.95,7956.00
889.72,875.97,1320.41,7951.00
889.67,875.93,1319.86,7916.00
889.62,875.88,1319.32,7891.00
889.57,875.84,1318.77,7911.00
889.52,875.80,1318.23,7905.00
889.46,875.76,1317.68,7851.00
889.41,875.72,1317.13,7903.00
889.36,875.67,1316.59,7909.00
889.31,875.63,1316.04,7876.00
889.26,875.59,1315.50,7870.00
889.20,875.55,1314.95,7906.00
889.15,875.51,1314.41,7891.00
889.10,875.46,1313.86,7859.00
889.05,875.42,1313.31,7835.00
888.99,875.38,1312.77,7851.00
888.94,875.34,1312.22,7845.00
888.89,875.30,1311.68,7846.00
888.84,875.25,1311.13,7883.00
888.79,875.21,1310.58,7832.00
888.73,875.17,1310.04,7832.00
888.68,875.13,1309.49,7795.00
888.63,875.09,1308.94,7851.00
888.58,875.05,1308.40,7892.00
888.53,875.00,1307.85,7830.00
888.47,874.96,1307.30,7804.00
888.42,874.92,1306.76,7826.00
888.37,874.88,1306.21,7820.00
888.32,874.84,1305.66,7767.00
888.27,874.79,1305.12,7827.00
888.21,874.75,1304.57,7760.00
888.16,874.71,1304.02,7815.00
888.11,874.67,1303.48,7776.00
888.06,874.63,1302.93,7823.00
888.00,874.58,1302.38,7791.00
887.95,874.54,1301.84,7792.00
887.90,874.50,1301.29,7804.00
887.85,874.46,1300.74,7818.00
887.80,874.42,1300.19,7726.00
887.74,874.37,1299.65,7747.00
887.69,874.33,1299.10,7741.00
887.64,874.29,1298.55,7795.00
887.59,874.25,1298.00,7710.00
887.54,874.21,1297.46,7763.00
887.48,874.16,1296.91,7749.00
887.43,874.12,1296.36,7752.00
887.38,874.08,1295.81,7733.00
887.33,874.04,1295.27,7772.00
887.28,874.00,1294.72,7790.00
887.22,873.95,1294.17,7715.00
887.17,873.91,1293.62,7690.00
887.12,873.87,1293.07,7703.00
887.07,873.83,1292.53,7705.00
887.01,873.79,1291.98,7744.00
886.96,873.74,1291.43,7662.00
886.91,873.70,1290.88,7738.00
886.86,873.66,1290.33,7725.00
886.81,873.62,1289.79,7762.00
886.75,873.58,1289.24,7687.00
886.70,873.54,1288.69,7737.00
886.65,873.49,1288.14,7694.00
886.60,873.45,1287.59,7732.00
886.55,873.41,1287.04,7671.00
886.49,873.37,1286.49,7697.00
886.44,873.33,1285.95,7683.00
886.39,873.28,1285.40,7668.00
886.34,873.24,1284.85,7636.00
886.29,873.20,1284.30,7692.00
886.23,873.16,1283.75,7603.00
886.18,873.12,1283.20,7685.00
886.13,873.07,1282.65,7627.00
886.08,873.03,1282.10,7681.00
886.03,872.99,1281.55,7671.00
885.97,872.95,1281.01,7718.00
885.92,872.91,1280.46,7687.00
885.87,872.86,1279.91,7711.00
885.82,872.82,1279.36,7648.00
885.76,872.78,1278.81,7693.00
885.71,872.74,1278.26,7640.00
885.66,872.70,1277.71,7687.00
885.61,872.65,1277.16,7633.00
885.56,872.61,1276.61,7637.00
885.50,872.57,1276.06,7653.00
885.45,872.53,1275.51,7672.00
885.40,872.49,1274.96,7670.00
885.35,872.44,1274.41,7633.00
885.30,872.40,1273.86,7658.00
885.24,872.36,1273.31,7639.00
885.19,872.32,1272.76,7621.00
885.14,872.28,1272.21,7612.00
885.09,872.23,1271.66,7628.00
885.04,872.19,1271.11,7653.00
884.98,872.15,1270.56,7627.00
884.93,872.11,1270.01,7657.00
884.88,872.07,1269.46,7599.00
884.83,872.02,1268.91,7601.00
884.77,871.98,1268.36,7640.00
884.72,871.94,1267.81,7678.00
884.67,871.90,1267.26,7585.00
884.62,871.86,1266.71,7632.00
884.57,871.82,1266.16,7539.00
884.51,871.77,1265.61,7626.00
884.46,871.73,1265.06,7530.00
884.41,871.69,1264.51,7578.00
884.36,871.65,1263.96,7671.00
884.31,871.61,1263.41,7608.00
884.25,871.56,1262.85,7646.00
884.20,871.52,1262.30,7601.00
884.15,871.48,1261.75,7630.00
884.10,871.44,1261.20,7561.00
884.05,871.40,1260.65,7568.00
883.99,871.35,1260.10,7601.00
883.94,871.31,1259.55,7592.00
883.89,871.27,1259.00,7606.00
883.84,871.23,1258.45,7614.00
883.78,871.19,1257.89,7516.00
883.73,871.14,1257.34,7599.00
883.68,871.10,1256.79,7635.00
883.63,871.06,1256.24,7591.00
883.58,871.02,1255.69,7537.00
883.52,870.98,1255.14,7585.00
883.47,870.93,1254.59,7591.00
883.42,870.89,1254.03,7562.00
883.37,870.85,1253.48,7620.00
883.32,870.81,1252.93,7584.00
883.26,870.77,1252.38,7544.00
883.21,870.72,1251.83,7580.00
883.16,870.68,1251.27,7593.00
883.11,870.64,1250.72,7541.00
883.06,870.60,1250.17,7607.00
883.00,870.56,1249.62,7567.00
882.95,870.51,1249.07,7592.00
882.90,870.47,1248.51,7571.00
882.85,870.43,1247.96,7555.00
882.79,870.39,1247.41,7504.00
882.74,870.35,1246.86,7598.00
882.69,870.31,1246.30,7546.00
882.64,870.26,1245.75,7594.00
882.59,870.22,1245.20,7517.00
882.53,870.18,1244.65,7512.00
882.48,870.14,1244.09,7524.00
882.43,870.10,1243.54,7522.00
882.38,870.05,1242.99,7551.00
882.33,870.01,1242.44,7519.00
882.27,869.97,1241.88,7511.00
882.22,869.93,1241.33,7569.00
882.17,869.89,1240.78,7518.00
882.12,869.84,1240.22,7488.00
882.07,869.80,1239.67,7545.00
882.01,869.76,1239.12,7572.00
881.96,869.72,1238.56,7573.00
881.91,869.68,1238.01,7473.00
881.86,869.63,1237.46,7552.00
881.81,869.59,1236.90,7548.00
881.75,869.55,1236.35,7521.00
881.70,869.51,1235.80,7514.00
881.65,869.47,1235.24,7534.00
881.60,869.42,1234.69,7545.00
881.54,869.38,1234.14,7510.00
881.49,869.34,1233.58,7547.00
881.44,869.30,1233.03,7501.00
881.39,869.26,1232.48,7561.00
881.34,869.21,1231.92,7504.00
881.28,869.17,1231.37,7503.00
881.23,869.13,1230.81,7528.00
881.18,869.09,1230.26,7526.00
881.13,869.05,1229.71,7505.00
881.08,869.00,1229.15,7526.00
881.02,868.96,1228.60,7536.00
880.97,868.92,1228.04,7530.00
880.92,868.88,1227.49,7491.00
880.87,868.84,1226.93,7492.00
880.82,868.79,1226.38,7470.00
880.76,868.75,1225.83,7551.00
880.71,868.71,1225.27,7521.00
880.66,868.67,1224.72,7554.00
880.61,868.63,1224.16,7443.00
880.55,868.59,1223.61,7494.00
880.50,868.54,1223.05,7479.00
880.45,868.50,1222.50,7465.00
880.40,868.46,1221.94,7452.00
880.35,868.42,1221.39,7503.00
880.29,868.38,1220.83,7502.00
880.24,868.33,1220.28,7457.00
880.19,868.29,1219.72,7506.00
880.14,868.25,1219.17,7461.00
880.09,868.21,1218.61,7520.00
880.03,868.17,1218.06,7472.00
879.98,868.12,1217.50,7475.00
879.93,868.08,1216.95,7464.00
879.88,868.04,1216.39,7466.00
879.83,868.00,1215.84,7511.00
879.77,867.96,1215.28,7432.00
879.72,867.91,1214.73,7472.00
879.67,867.87,1214.17,7423.00
879.62,867.83,1213.61,7496.00
879.56,867.79,1213.06,7419.00
879.51,867.75,1212.50,7537.00
879.46,867.70,1211.95,7469.00
879.41,867.66,1211.39,7477.00
879.36,867.62,1210.84,7444.00
879.30,867.58,1210.28,7461.00
879.25,867.54,1209.72,7470.00
879.20,867.49,1209.17,7441.00
879.15,867.45,1208.61,7459.00
879.10,867.41,1208.05,7477.00
879.04,867.37,1207.50,7465.00
878.99,867.33,1206.94,7499.00
878.94,867.28,1206.39,7489.00
878.89,867.24,1205.83,7489.00
878.84,867.20,1205.27,7408.00
878.78,867.16,1204.72,7453.00
878.73,867.12,1204.16,7408.00
878.68,867.08,1203.60,7465.00
878.63,867.03,1203.05,7508.00
878.58,866.99,1202.49,7486.00
878.52,866.95,1201.93,7515.00
878.47,866.91,1201.38,7440.00
878.42,866.87,1200.82,7487.00
878.37,866.82,1200.26,7519.00
878.31,866.78,1199.71,7373.00
878.26,866.74,1199.15,7488.00
878.21,866.70,1198.59,7422.00
878.16,866.66,1198.03,7406.00
878.11,866.61,1197.48,7484.00
878.05,866.57,1196.92,7495.00
878.00,866.53,1196.36,7465.00
877.95,866.49,1195.81,7461.00
877.90,866.45,1195.25,7430.00
877.85,866.40,1194.69,7442.00
877.79,866.36,1194.13,7464.00
877.74,866.32,1193.58,7399.00
877.69,866.28,1193.02,7460.00
877.64,866.24,1192.46,7468.00
877.59,866.19,1191.90,7456.00
877.53,866.15,1191.35,7522.00
877.48,866.11,1190.79,7426.00
877.43,866.07,1190.23,7468.00
877.38,866.03,1189.67,7470.00
877.32,865.98,1189.11,7411.00
877.27,865.94,1188.56,7463.00
877.22,865.90,1188.00,7480.00
877.17,865.86,1187.44,7438.00
877.12,865.82,1186.88,7451.00
877.06,865.77,1186.32,7464.00
877.01,865.73,1185.76,7456.00
876.96,865.69,1185.21,7424.00
876.91,865.65,1184.65,7471.00
876.86,865.61,1184.09,7497.00
876.80,865.57,1183.53,7529.00
876.75,865.52,1182.97,7440.00
876.70,865.48,1182.41,7447.00
876.65,865.44,1181.85,7445.00
876.60,865.40,1181.30,7498.00
876.54,865.36,1180.74,7417.00
876.49,865.31,1180.18,7484.00
876.44,865.27,1179.62,7443.00
876.39,865.23,1179.06,7470.00
876.33,865.19,1178.50,7439.00
876.28,865.15,1177.94,7499.00
876.23,865.10,1177.38,7467.00
876.18,865.06,1176.82,7482.00
876.13,865.02,1176.26,7484.00
876.07,864.98,1175.71,7450.00
876.02,864.94,1175.15,7464.00
875.97,864.89,1174.59,7497.00
875.92,864.85,1174.03,7450.00
875.87,864.81,1173.47,7478.00
875.81,864.77,1172.91,7417.00
875.76,864.73,1172.35,7473.00
875.71,864.68,1171.79,7462.00
875.66,864.64,1171.23,7435.00
875.61,864.60,1170.67,7504.00
875.55,864.56,1170.11,7427.00
875.50,864.52,1169.55,7483.00
875.45,864.47,1168.99,7373.00
875.40,864.43,1168.43,7514.00
875.35,864.39,1167.87,7501.00
875.29,864.35,1167.31,7457.00
875.24,864.31,1166.75,7500.00
875.19,864.26,1166.19,7459.00
875.14,864.22,1165.63,7494.00
875.08,864.18,1165.07,7437.00
875.03,864.14,1164.51,7459.00
874.98,864.10,1163.95,7462.00
874.93,864.05,1163.39,7436.00
874.88,864.01,1162.83,7504.00
874.82,863.97,1162.27,7467.00
874.77,863.93,1161.71,7433.00
874.72,863.89,1161.14,7470.00
874.67,863.85,1160.58,7487.00
874.62,863.80,1160.02,7407.00
874.56,863.76,1159.46,7473.00
874.51,863.72,1158.90,7497.00
874.46,863.68,1158.34,7473.00
874.41,863.64,1157.78,7474.00
874.36,863.59,1157.22,7494.00
874.30,863.55,1156.66,7469.00
874.25,863.51,1156.10,7463.00
874.20,863.47,1155.53,7437.00
874.15,863.43,1154.97,7514.00
874.09,863.38,1154.41,7498.00
874.04,863.34,1153.85,7496.00
873.99,863.30,1153.29,7506.00
873.94,863.26,1152.73,7495.00
873.89,863.22,1152.17,7530.00
873.83,863.17,1151.60,7482.00
873.78,863.13,1151.04,7458.00
873.73,863.09,1150.48,7510.00
873.68,863.05,1149.92,7553.00
873.63,863.01,1149.36,7454.00
873.57,862.96,1148.80,7502.00
873.52,862.92,1148.23,7517.00
873.47,862.88,1147.67,7527.00
873.42,862.84,1147.11,7509.00
873.37,862.80,1146.55,7573.00
873.31,862.75,1145.99,7510.00
873.26,862.71,1145.42,7528.00
873.21,862.67,1144.86,7497.00
873.16,862.63,1144.30,7480.00
873.10,862.59,1143.74,7535.00
873.05,862.54,1143.17,7496.00
873.00,862.50,1142.61,7534.00
872.95,862.46,1142.05,7518.00
872.90,862.42,1141.49,7536.00
872.84,862.38,1140.92,7552.00
872.79,862.34,1140.36,7543.00
872.74,862.29,1139.80,7550.00
872.69,862.25,1139.23,7574.00
872.64,862.21,1138.67,7599.00
872.58,862.17,1138.11,7538.00
872.53,862.13,1137.55,7558.00
872.48,862.08,1136.98,7566.00
872.43,862.04,1136.42,7578.00
872.38,862.00,1135.86,7552.00
872.32,861.96,1135.29,7503.00
872.27,861.92,1134.73,7530.00
872.22,861.87,1134.17,7588.00
872.17,861.83,1133.60,7626.00
872.12,861.79,1133.04,7591.00
872.06,861.75,1132.48,7635.00
872.01,861.71,1131.91,7591.00
871.96,861.66,1131.35,7591.00
871.91,861.62,1130.79,7595.00
871.85,861.58,1130.22,7610.00
871.80,861.54,1129.66,7601.00
871.75,861.50,1129.09,7610.00
871.70,861.45,1128.53,7636.00
871.65,861.41,1127.97,7556.00
871.59,861.37,1127.40,7591.00
871.54,861.33,1126.84,7578.00
871.49,861.29,1126.27,7581.00
871.44,861.24,1125.71,7629.00
871.39,861.20,1125.15,7632.00
871.33,861.16,1124.58,7622.00
871.28,861.12,1124.02,7662.00
871.23,861.08,1123.45,7632.00
871.18,861.03,1122.89,7613.00
871.13,860.99,1122.32,7614.00
871.07,860.95,1121.76,7651.00
871.02,860.91,1121.20,7635.00
870.97,860.87,1120.63,7592.00
870.92,860.83,1120.07,7609.00
870.86,860.78,1119.50,7664.00
870.81,860.74,1118.94,7645.00
870.76,860.70,1118.37,7618.00
870.71,860.66,1117.81,7629.00
870.66,860.62,1117.24,7682.00
870.60,860.57,1116.68,7711.00
870.55,860.53,1116.11,7682.00
870.50,860.49,1115.55,7719.00
870.45,860.45,1114.98,7650.00
870.40,860.41,1114.42,7660.00
870.34,860.36,1113.85,7738.00
870.29,860.32,1113.29,7665.00
870.24,860.28,1112.72,7690.00
870.19,860.24,1112.15,7706.00
870.14,860.20,1111.59,7690.00
870.08,860.15,1111.02,7690.00
870.03,860.11,1110.46,7779.00
869.98,860.07,1109.89,7693.00
869.93,860.03,1109.33,7764.00
869.87,859.99,1108.76,7688.00
869.82,859.94,1108.19,7704.00
869.77,859.90,1107.63,7693.00
869.72,859.86,1107.06,7706.00
869.67,859.82,1106.50,7767.00
869.61,859.78,1105.93,7764.00
869.56,859.73,1105.36,7793.00
869.51,859.69,1104.80,7713.00
869.46,859.65,1104.23,7772.00
869.41,859.61,1103.67,7747.00
869.35,859.57,1103.10,7725.00
869.30,859.52,1102.53,7767.00
869.25,859.48,1101.97,7778.00
869.20,859.44,1101.40,7839.00
869.15,859.40,1100.83,7796.00
869.09,859.36,1100.27,7777.00
869.04,859.31,1099.70,7842.00
868.99,859.27,1099.13,7790.00
868.94,859.23,1098.57,7769.00
868.89,859.19,1098.00,7826.00
868.83,859.15,1097.43,7767.00
868.78,859.11,1096.87,7712.00
868.73,859.06,1096.30,7779.00
868.68,859.02,1095.73,7801.00
868.62,858.98,1095.16,7805.00
868.57,858.94,1094.60,7852.00
868.52,858.90,1094.03,7759.00
868.47,858.85,1093.46,7832.00
868.42,858.81,1092.90,7754.00
868.36,858.77,1092.33,7780.00
868.31,858.73,1091.76,7823.00
868.26,858.69,1091.19,7807.00
868.21,858.64,1090.63,7805.00
868.16,858.60,1090.06,7806.00
868.10,858.56,1089.49,7786.00
868.05,858.52,1088.92,7765.00
868.00,858.48,1088.35,7785.00
867.95,858.43,1087.79,7798.00
867.90,858.39,1087.22,7795.00
867.84,858.35,1086.65,7807.00
867.79,858.31,1086.08,7785.00
867.74,858.27,1085.51,7801.00
867.69,858.22,1084.95,7726.00
867.63,858.18,1084.38,7780.00
867.58,858.14,1083.81,7707.00
867.53,858.10,1083.24,7831.00
867.48,858.06,1082.67,7739.00
867.43,858.01,1082.11,7709.00
867.37,857.97,1081.54,7761.00
867.32,857.93,1080.97,7722.00
867.27,857.89,1080.40,7722.00
867.22,857.85,1079.83,7732.00
867.17,857.80,1079.26,7671.00
867.11,857.76,1078.69,7685.00
867.06,857.72,1078.12,7694.00
867.01,857.68,1077.56,7754.00
866.96,857.64,1076.99,7661.00
866.91,857.60,1076.42,7720.00
866.85,857.55,1075.85,7666.00
866.80,857.51,1075.28,7703.00
866.75,857.47,1074.71,7593.00
866.70,857.43,1074.14,7566.00
866.64,857.39,1073.57,7540.00
866.59,857.34,1073.00,7569.00
866.54,857.30,1072.43,7507.00
866.49,857.26,1071.86,7487.00
866.44,857.22,1071.30,7510.00
866.38,857.18,1070.73,7502.00
866.33,857.13,1070.16,7451.00
866.28,857.09,1069.59,7497.00
866.23,857.05,1069.02,7407.00
866.18,857.01,1068.45,7447.00
866.12,856.97,1067.88,7395.00
866.07,856.92,1067.31,7363.00
866.02,856.88,1066.74,7354.00
865.97,856.84,1066.17,7349.00
865.92,856.80,1065.60,7299.00
865.86,856.76,1065.03,7285.00
865.81,856.71,1064.46,7320.00
865.76,856.67,1063.89,7272.00
865.71,856.63,1063.32,7175.00
865.66,856.59,1062.75,7147.00
865.60,856.55,1062.18,7164.00
865.55,856.50,1061.61,7130.00
865.50,856.46,1061.04,7113.00
865.45,856.42,1060.46,7082.00
865.39,856.38,1059.89,7029.00
865.34,856.34,1059.32,7033.00
865.29,856.29,1058.75,6966.00
865.24,856.25,1058.18,6996.00
865.19,856.21,1057.61,6929.00
865.13,856.17,1057.04,6932.00
865.08,856.13,1056.47,6914.00
865.03,856.08,1055.90,6884.00
864.98,856.04,1055.33,6836.00
864.93,856.00,1054.76,6813.00
864.87,855.96,1054.19,6788.00
864.82,855.92,1053.61,6833.00
864.77,855.88,1053.04,6731.00
864.72,855.83,1052.47,6767.00
864.67,855.79,1051.90,6770.00
864.61,855.75,1051.33,6752.00
864.56,855.71,1050.76,6734.00
864.51,855.67,1050.19,6781.00
864.46,855.62,1049.61,6769.00
864.40,855.58,1049.04,6797.00
864.35,855.54,1048.47,6779.00
864.30,855.50,1047.90,6852.00
864.25,855.46,1047.33,6777.00
864.20,855.41,1046.76,6847.00
864.14,855.37,1046.18,6925.00
864.09,855.33,1045.61,6945.00
864.04,855.29,1045.04,6995.00
863.99,855.25,1044.47,7038.00
863.94,855.20,1043.90,7138.00
863.88,855.16,1043.32,7220.00
863.83,855.12,1042.75,7283.00
863.78,855.08,1042.18,7377.00
863.73,855.04,1041.61,7465.00
863.68,854.99,1041.03,7635.00
863.62,854.95,1040.46,7734.00
863.57,854.91,1039.89,7891.00
863.52,854.87,1039.32,7977.00
863.47,854.83,1038.74,8119.00
863.41,854.78,1038.17,8302.00
863.36,854.74,1037.60,8404.00
863.31,854.70,1037.03,8544.00
863.26,854.66,1036.45,8736.00
863.21,854.62,1035.88,8827.00
863.15,854.57,1035.31,9027.00
863.10,854.53,1034.73,9140.00
863.05,854.49,1034.16,9338.00
863.00,854.45,1033.59,9477.00
862.95,854.41,1033.01,9642.00
862.89,854.37,1032.44,9831.00
862.84,854.32,1031.87,10009.00
862.79,854.28,1031.29,10168.00
862.74,854.24,1030.72,10356.00
862.69,854.20,1030.15,10519.00
862.63,854.16,1029.57,10761.00
862.58,854.11,1029.00,10941.00
862.53,854.07,1028.43,11014.00
862.48,854.03,1027.85,11224.00
862.43,853.99,1027.28,11372.00
862.37,853.95,1026.70,11630.00
862.32,853.90,1026.13,11748.00
862.27,853.86,1025.56,11910.00
862.22,853.82,1024.98,12120.00
862.16,853.78,1024.41,12236.00
862.11,853.74,1023.83,12457.00
862.06,853.69,1023.26,12669.00
862.01,853.65,1022.69,12911.00
861.96,853.61,1022.11,12950.00
861.90,853.57,1021.54,13189.00
861.85,853.53,1020.96,13338.00
861.80,853.48,1020.39,13539.00
861.75,853.44,1019.81,13712.00
861.70,853.40,1019.24,13936.00
861.64,853.36,1018.67,14079.00
861.59,853.32,1018.09,14358.00
861.54,853.27,1017.52,14424.00
861.49,853.23,1016.94,14612.00
861.44,853.19,1016.37,14760.00
861.38,853.15,1015.79,14914.00
861.33,853.11,1015.22,15114.00
861.28,853.06,1014.64,15266.00
861.23,853.02,1014.07,15400.00
861.17,852.98,1013.49,15596.00
861.12,852.94,1012.92,15624.00
861.07,852.90,1012.34,15825.00
861.02,852.86,1011.77,15917.00
860.97,852.81,1011.19,16030.00
860.91,852.77,1010.61,16137.00
860.86,852.73,1010.04,16288.00
860.81,852.69,1009.46,16361.00
860.76,852.65,1008.89,16492.00
860.71,852.60,1008.31,16557.00
860.65,852.56,1007.74,16600.00
860.60,852.52,1007.16,16660.00
860.55,852.48,1006.58,16847.00
860.50,852.44,1006.01,16844.00
860.45,852.39,1005.43,16857.00
860.39,852.35,1004.86,16963.00
860.34,852.31,1004.28,17108.00
860.29,852.27,1003.70,17090.00
860.24,852.23,1003.13,17016.00
860.18,852.18,1002.55,17172.00
860.13,852.14,1001.98,17287.00
860.08,852.10,1001.40,17222.00
860.03,852.06,1000.82,17242.00
859.98,852.02,1000.25,17232.00
859.92,851.97,999.67,17347.00
859.87,851.93,999.09,17296.00
859.82,851.89,998.52,17270.00
859.77,851.85,997.94,17302.00
859.72,851.81,997.36,17436.00
859.66,851.76,996.79,17491.00
859.61,851.72,996.21,17446.00
859.56,851.68,995.63,17449.00
859.51,851.64,995.06,17486.00
859.46,851.60,994.48,17548.00
859.40,851.55,993.90,17477.00
859.35,851.51,993.33,17535.00
859.30,851.47,992.75,17602.00
859.25,851.43,992.17,17604.00
859.20,851.39,991.59,17603.00
859.14,851.34,991.02,17600.00
859.09,851.30,990.44,17652.00
859.04,851.26,989.86,17574.00
858.99,851.22,989.28,17565.00
858.93,851.18,988.71,17600.00
858.88,851.14,988.13,17593.00
858.83,851.09,987.55,17551.00
858.78,851.05,986.97,17558.00
858.73,851.01,986.40,17506.00
858.67,850.97,985.82,17436.00
858.62,850.93,985.24,17468.00
858.57,850.88,984.66,17440.00
858.52,850.84,984.08,17403.00
858.47,850.80,983.51,17346.00
858.41,850.76,982.93,17230.00
858.36,850.72,982.35,17236.00
858.31,850.67,981.77,17166.00
858.26,850.63,981.19,17146.00
858.21,850.59,980.61,16997.00
858.15,850.55,980.04,16941.00
858.10,850.51,979.46,16867.00
858.05,850.46,978.88,16703.00
858.00,850.42,978.30,16622.00
857.94,850.38,977.72,16515.00
857.89,850.34,977.14,16392.00
857.84,850.30,976.56,16343.00
857.79,850.25,975.99,16240.00
857.74,850.21,975.41,16004.00
857.68,850.17,974.83,15941.00
857.63,850.13,974.25,15785.00
857.58,850.09,973.67,15787.00
857.53,850.04,973.09,15646.00
857.48,850.00,972.51,15514.00
857.42,849.96,971.93,15463.00
857.37,849.92,971.35,15294.00
857.32,849.88,970.77,15251.00
857.27,849.83,970.19,15065.00
857.22,849.79,969.61,15001.00
857.16,849.75,969.04,14885.00
857.11,849.71,968.46,14837.00
857.06,849.67,967.88,14751.00
857.01,849.63,967.30,14759.00
856.95,849.58,966.72,14596.00
856.90,849.54,966.14,14541.00
856.85,849.50,965.56,14556.00
856.80,849.46,964.98,14511.00
856.75,849.42,964.40,14358.00
856.69,849.37,963.82,14350.00
856.64,849.33,963.24,14192.00
856.59,849.29,962.66,14169.00
856.54,849.25,962.08,14104.00
856.49,849.21,961.50,13927.00
856.43,849.16,960.92,13870.00
856.38,849.12,960.34,13874.00
856.33,849.08,959.76,13677.00
856.28,849.04,959.17,13616.00
856.23,849.00,958.59,13463.00
856.17,848.95,958.01,13329.00
856.12,848.91,957.43,13137.00
856.07,848.87,956.85,13080.00
856.02,848.83,956.27,12980.00
855.97,848.79,955.69,12818.00
855.91,848.74,955.11,12696.00
855.86,848.70,954.53,12567.00
855.81,848.66,953.95,12446.00
855.76,848.62,953.37,12359.00
855.70,848.58,952.79,12215.00
855.65,848.53,952.20,12031.00
855.60,848.49,951.62,12007.00
855.55,848.45,951.04,11880.00
855.50,848.41,950.46,11877.00
855.44,848.37,949.88,11742.00
855.39,848.32,949.30,11755.00
855.34,848.28,948.72,11660.00
855.29,848.24,948.13,11598.00
855.24,848.20,947.55,11532.00
855.18,848.16,946.97,11471.00
855.13,848.12,946.39,11495.00
855.08,848.07,945.81,11421.00
855.03,848.03,945.23,11481.00
854.98,847.99,944.64,11342.00
854.92,847.95,944.06,11415.00
854.87,847.91,943.48,11453.00
854.82,847.86,942.90,11458.00
854.77,847.82,942.32,11423.00
854.71,847.78,941.73,11483.00
854.66,847.74,941.15,11460.00
854.61,847.70,940.57,11501.00
854.56,847.65,939.99,11468.00
854.51,847.61,939.40,11482.00
854.45,847.57,938.82,11507.00
854.40,847.53,938.24,11510.00
854.35,847.49,937.66,11505.00
854.30,847.44,937.07,11550.00
854.25,847.40,936.49,11590.00
854.19,847.36,935.91,11573.00
854.14,847.32,935.33,11587.00
854.09,847.28,934.74,11597.00
854.04,847.23,934.16,11640.00
853.99,847.19,933.58,11614.00
853.93,847.15,932.99,11598.00
853.88,847.11,932.41,11583.00
853.83,847.07,931.83,11551.00
853.78,847.02,931.24,11574.00
853.72,846.98,930.66,11613.00
853.67,846.94,930.08,11597.00
853.62,846.90,929.49,11560.00
853.57,846.86,928.91,11539.00
853.52,846.81,928.33,11480.00
853.46,846.77,927.74,11457.00
853.41,846.73,927.16,11377.00
853.36,846.69,926.58,11387.00
853.31,846.65,925.99,11326.00
853.26,846.60,925.41,11345.00
853.20,846.56,924.82,11240.00
853.15,846.52,924.24,11224.00
853.10,846.48,923.66,11229.00
853.05,846.44,923.07,11233.00
853.00,846.40,922.49,11251.00
852.94,846.35,921.90,11196.00
852.89,846.31,921.32,11247.00
852.84,846.27,920.74,11171.00
852.79,846.23,920.15,11170.00
852.74,846.19,919.57,11165.00
852.68,846.14,918.98,11169.00
852.63,846.10,918.40,11200.00
852.58,846.06,917.81,11213.00
852.53,846.02,917.23,11302.00
852.47,845.98,916.64,11305.00
852.42,845.93,916.06,11381.00
852.37,845.89,915.47,11359.00
852.32,845.85,914.89,11315.00
852.27,845.81,914.30,11349.00
852.21,845.77,913.72,11404.00
852.16,845.72,913.13,11365.00
852.11,845.68,912.55,11432.00
852.06,845.64,911.96,11342.00
852.01,845.60,911.38,11472.00
851.95,845.56,910.79,11436.00
851.90,845.51,910.21,11446.00
851.85,845.47,909.62,11500.00
851.80,845.43,909.04,11578.00
851.75,845.39,908.45,11604.00
851.69,845.35,907.87,11616.00
851.64,845.30,907.28,11666.00
851.59,845.26,906.69,11638.00
851.54,845.22,906.11,11608.00
851.48,845.18,905.52,11552.00
851.43,845.14,904.94,11613.00
851.38,845.09,904.35,11580.00
851.33,845.05,903.77,11566.00
851.28,845.01,903.18,11522.00
851.22,844.97,902.59,11514.00
851.17,844.93,902.01,11537.00
851.12,844.89,901.42,11529.00
851.07,844.84,900.83,11551.00
851.02,844.80,900.25,11517.00
850.96,844.76,899.66,11630.00
850.91,844.72,899.08,11603.00
850.86,844.68,898.49,11667.00
850.81,844.63,897.90,11664.00
850.76,844.59,897.32,11787.00
850.70,844.55,896.73,11804.00
850.65,844.51,896.14,11877.00
850.60,844.47,895.56,11872.00
850.55,844.42,894.97,12032.00
850.49,844.38,894.38,11996.00
850.44,844.34,893.80,12090.00
850.39,844.30,893.21,12106.00
850.34,844.26,892.62,12301.00
850.29,844.21,892.03,12361.00
850.23,844.17,891.45,12458.00
850.18,844.13,890.86,12606.00
850.13,844.09,890.27,12705.00
850.08,844.05,889.68,12860.00
850.03,844.00,889.10,13008.00
849.97,843.96,888.51,13187.00
849.92,843.92,887.92,13388.00
849.87,843.88,887.33,13483.00
849.82,843.84,886.75,13524.00
849.77,843.79,886.16,13730.00
849.71,843.75,885.57,13936.00
849.66,843.71,884.98,13982.00
849.61,843.67,884.40,14159.00
849.56,843.63,883.81,14332.00
849.51,843.58,883.22,14429.00
849.45,843.54,882.63,14579.00
849.40,843.50,882.04,14808.00
849.35,843.46,881.46,15018.00
849.30,843.42,880.87,15134.00
849.24,843.37,880.28,15267.00
849.19,843.33,879.69,15455.00
849.14,843.29,879.10,15579.00
849.09,843.25,878.51,15648.00
849.04,843.21,877.92,15756.00
848.98,843.17,877.34,15810.00
848.93,843.12,876.75,15944.00
848.88,843.08,876.16,16188.00
848.83,843.04,875.57,16234.00
848.78,843.00,874.98,16368.00
848.72,842.96,874.39,16388.00
848.67,842.91,873.80,16532.00
848.62,842.87,873.21,16719.00
848.57,842.83,872.63,16784.00
848.52,842.79,872.04,16900.00
848.46,842.75,871.45,17042.00
848.41,842.70,870.86,17130.00
848.36,842.66,870.27,17319.00
848.31,842.62,869.68,17462.00
848.25,842.58,869.09,17644.00
848.20,842.54,868.50,17757.00
848.15,842.49,867.91,17833.00
848.10,842.45,867.32,17970.00
848.05,842.41,866.73,18175.00
847.99,842.37,866.14,18269.00
847.94,842.33,865.55,18399.00
847.89,842.28,864.96,18575.00
847.84,842.24,864.37,18677.00
847.79,842.20,863.78,18820.00
847.73,842.16,863.19,18892.00
847.68,842.12,862.60,19072.00
847.63,842.07,862.01,19117.00
847.58,842.03,861.42,19267.00
847.53,841.99,860.83,19364.00
847.47,841.95,860.24,19464.00
847.42,841.91,859.65,19539.00
847.37,841.86,859.06,19710.00
847.32,841.82,858.47,19668.00
847.26,841.78,857.88,19850.00
847.21,841.74,857.29,19892.00
847.16,841.70,856.70,20003.00
847.11,841.66,856.11,19991.00
847.06,841.61,855.52,19992.00
847.00,841.57,854.93,20176.00
846.95,841.53,854.34,20026.00
846.90,841.49,853.74,20196.00
846.85,841.45,853.15,20182.00
846.80,841.40,852.56,20300.00
846.74,841.36,851.97,20211.00
846.69,841.32,851.38,20286.00
846.64,841.28,850.79,20291.00
846.59,841.24,850.20,20451.00
846.54,841.19,849.61,20355.00
846.48,841.15,849.01,20351.00
846.43,841.11,848.42,20323.00
846.38,841.07,847.83,20432.00
846.33,841.03,847.24,20394.00
846.28,840.98,846.65,20424.00
846.22,840.94,846.06,20373.00
846.17,840.90,845.46,20444.00
846.12,840.86,844.87,20497.00
846.07,840.82,844.28,20522.00
846.01,840.77,843.69,20420.00
845.96,840.73,843.10,20558.00
845.91,840.69,842.50,20470.00
845.86,840.65,841.91,20542.00
845.81,840.61,841.32,20539.00
845.75,840.56,840.73,20581.00
845.70,840.52,840.14,20551.00
845.65,840.48,839.54,20683.00
845.60,840.44,838.95,20558.00
845.55,840.40,838.36,20589.00
845.49,840.35,837.77,20512.00
845.44,840.31,837.17,20575.00
845.39,840.27,836.58,20522.00
845.34,840.23,835.99,20548.00
845.29,840.19,835.40,20645.00
845.23,840.15,834.80,20589.00
845.18,840.10,834.21,20592.00
845.13,840.06,833.62,20643.00
845.08,840.02,833.02,20633.00
845.02,839.98,832.43,20668.00
844.97,839.94,831.84,20564.00
844.92,839.89,831.24,20570.00
844.87,839.85,830.65,20473.00
844.82,839.81,830.06,20588.00
844.76,839.77,829.46,20552.00
844.71,839.73,828.87,20518.00
844.66,839.68,828.28,20362.00
844.61,839.64,827.68,20370.00
844.56,839.60,827.09,20336.00
844.50,839.56,826.50,20319.00
844.45,839.52,825.90,20264.00
844.40,839.47,825.31,20158.00
844.35,839.43,824.72,20017.00
844.30,839.39,824.12,20049.00
844.24,839.35,823.53,19868.00
844.19,839.31,822.93,19907.00
844.14,839.26,822.34,19867.00
844.09,839.22,821.75,19717.00
844.03,839.18,821.15,19546.00
843.98,839.14,820.56,19461.00
843.93,839.10,819.96,19313.00
843.88,839.05,819.37,19297.00
843.83,839.01,818.77,19091.00
843.77,838.97,818.18,18885.00
843.72,838.93,817.58,18842.00
843.67,838.89,816.99,18640.00
843.62,838.84,816.40,18616.00
843.57,838.80,815.80,18395.00
843.51,838.76,815.21,18315.00
843.46,838.72,814.61,18217.00
843.41,838.68,814.02,18040.00
843.36,838.63,813.42,17996.00
843.31,838.59,812.83,17847.00
843.25,838.55,812.23,17722.00
843.20,838.51,811.64,17543.00
843.15,838.47,811.04,17577.00
843.10,838.43,810.45,17450.00
843.05,838.38,809.85,17382.00
842.99,838.34,809.25,17151.00
842.94,838.30,808.66,17063.00
842.89,838.26,808.06,16926.00
842.84,838.22,807.47,16916.00
842.78,838.17,806.87,16860.00
842.73,838.13,806.28,16702.00
842.68,838.09,805.68,16635.00
842.63,838.05,805.08,16652.00
842.58,838.01,804.49,16511.00
842.52,837.96,803.89,16488.00
842.47,837.92,803.30,16434.00
842.42,837.88,802.70,16423.00
842.37,837.84,802.10,16239.00
842.32,837.80,801.51,16264.00
842.26,837.75,800.91,16174.00
842.21,837.71,800.32,16256.00
842.16,837.67,799.72,16128.00
842.11,837.63,799.12,16161.00
842.06,837.59,798.53,16158.00
842.00,837.54,797.93,16111.00
841.95,837.50,797.33,16082.00
841.90,837.46,796.74,16045.00
841.85,837.42,796.14,15959.00
841.79,837.38,795.54,16118.00
841.74,837.33,794.95,16052.00
841.69,837.29,794.35,16001.00
841.64,837.25,793.75,16034.00
841.59,837.21,793.16,16071.00
841.53,837.17,792.56,16112.00
841.48,837.12,791.96,16060.00
841.43,837.08,791.36,16089.00
841.38,837.04,790.77,16102.00
841.33,837.00,790.17,16215.00
841.27,836.96,789.57,16216.00
841.22,836.92,788.98,16174.00
841.17,836.87,788.38,16272.00
841.12,836.83,787.78,16315.00
841.07,836.79,787.18,16393.00
841.01,836.75,786.59,16474.00
840.96,836.71,785.99,16498.00
840.91,836.66,785.39,16593.00
840.86,836.62,784.79,16656.00
840.80,836.58,784.19,16718.00
840.75,836.54,783.60,16803.00
840.70,836.50,783.00,16951.00
840.65,836.45,782.40,16931.00
840.60,836.41,781.80,17199.00
840.54,836.37,781.20,17258.00
840.49,836.33,780.61,17398.00
840.44,836.29,780.01,17577.00
840.39,836.24,779.41,17481.00
840.34,836.20,778.81,17656.00
840.28,836.16,778.21,17759.00
840.23,836.12,777.61,17880.00
840.18,836.08,777.01,17956.00
840.13,836.03,776.42,18149.00
840.08,835.99,775.82,18200.00
840.02,835.95,775.22,18253.00
839.97,835.91,774.62,18371.00
839.92,835.87,774.02,18433.00
839.87,835.82,773.42,18525.00
839.82,835.78,772.82,18546.00
839.76,835.74,772.22,18572.00
839.71,835.70,771.62,18558.00
839.66,835.66,771.02,18610.00
839.61,835.61,770.43,18629.00
839.55,835.57,769.83,18526.00
839.50,835.53,769.23,18635.00
839.45,835.49,768.63,18593.00
839.40,835.45,768.03,18651.00
839.35,835.41,767.43,18572.00
839.29,835.36,766.83,18578.00
839.24,835.32,766.23,18429.00
839.19,835.28,765.63,18441.00
839.14,835.24,765.03,18406.00
839.09,835.20,764.43,18225.00
839.03,835.15,763.83,18128.00
838.98,835.11,763.23,18077.00
838.93,835.07,762.63,17966.00
838.88,835.03,762.03,17885.00
838.83,834.99,761.43,17817.00
838.77,834.94,760.83,17753.00
838.72,834.90,760.23,17634.00
838.67,834.86,759.63,17573.00
838.62,834.82,759.03,17382.00
838.56,834.78,758.43,17300.00
838.51,834.73,757.83,17174.00
838.46,834.69,757.23,17098.00
838.41,834.65,756.63,16918.00
838.36,834.61,756.02,16908.00
838.30,834.57,755.42,16825.00
838.25,834.52,754.82,16767.00
838.20,834.48,754.22,16604.00
838.15,834.44,753.62,16520.00
838.10,834.40,753.02,16430.00
838.04,834.36,752.42,16409.00
837.99,834.31,751.82,16313.00
837.94,834.27,751.22,16260.00
837.89,834.23,750.62,16115.00
837.84,834.19,750.01,16088.00
837.78,834.15,749.41,16019.00
837.73,834.10,748.81,15936.00
837.68,834.06,748.21,15859.00
837.63,834.02,747.61,15860.00
837.57,833.98,747.01,15743.00
837.52,833.94,746.40,15555.00
837.47,833.89,745.80,15511.00
837.42,833.85,745.20,15462.00
837.37,833.81,744.60,15307.00
837.31,833.77,744.00,15115.00
837.26,833.73,743.40,15010.00
837.21,833.69,742.79,14937.00
837.16,833.64,742.19,14702.00
837.11,833.60,741.59,14653.00
837.05,833.56,740.99,14532.00
837.00,833.52,740.38,14382.00
836.95,833.48,739.78,14300.00
836.90,833.43,739.18,14201.00
836.85,833.39,738.58,14106.00
836.79,833.35,737.97,14014.00
836.74,833.31,737.37,13934.00
836.69,833.27,736.77,13826.00
836.64,833.22,736.17,13752.00
836.59,833.18,735.56,13682.00
836.53,833.14,734.96,13631.00
836.48,833.10,734.36,13594.00
836.43,833.06,733.75,13559.00
836.38,833.01,733.15,13488.00
836.32,832.97,732.55,13461.00
836.27,832.93,731.95,13422.00
836.22,832.89,731.34,13364.00
836.17,832.85,730.74,13273.00
836.12,832.80,730.14,13397.00
836.06,832.76,729.53,13288.00
836.01,832.72,728.93,13273.00
835.96,832.68,728.33,13246.00
835.91,832.64,727.72,13152.00
835.86,832.59,727.12,13122.00
835.80,832.55,726.51,13091.00
835.75,832.51,725.91,13040.00
835.70,832.47,725.31,13061.00
835.65,832.43,724.70,13077.00
835.60,832.38,724.10,13014.00
835.54,832.34,723.50,13006.00
835.49,832.30,722.89,13046.00
835.44,832.26,722.29,13065.00
835.39,832.22,721.68,12974.00
835.33,832.18,721.08,13003.00
835.28,832.13,720.47,13026.00
835.23,832.09,719.87,13073.00
835.18,832.05,719.27,13010.00
835.13,832.01,718.66,13015.00
835.07,831.97,718.06,13003.00
835.02,831.92,717.45,13031.00
834.97,831.88,716.85,12910.00
834.92,831.84,716.24,12855.00
834.87,831.80,715.64,12807.00
834.81,831.76,715.03,12912.00
834.76,831.71,714.43,12888.00
834.71,831.67,713.82,12830.00
834.66,831.63,713.22,12803.00
834.61,831.59,712.61,12777.00
834.55,831.55,712.01,12784.00
834.50,831.50,711.40,12835.00
834.45,831.46,710.80,12745.00
834.40,831.42,710.19,12720.00
834.34,831.38,709.59,12676.00
834.29,831.34,708.98,12644.00
834.24,831.29,708.38,12650.00
834.19,831.25,707.77,12690.00
834.14,831.21,707.16,12538.00
834.08,831.17,706.56,12636.00
834.03,831.13,705.95,12611.00
833.98,831.08,705.35,12490.00
833.93,831.04,704.74,12454.00
833.88,831.00,704.13,12471.00
833.82,830.96,703.53,12442.00
833.77,830.92,702.92,12366.00
833.72,830.87,702.32,12349.00
833.67,830.83,701.71,12376.00
833.62,830.79,701.10,12398.00
833.56,830.75,700.50,12441.00
833.51,830.71,699.89,12399.00
833.46,830.66,699.28,12420.00
833.41,830.62,698.68,12442.00
833.36,830.58,698.07,12315.00
833.30,830.54,697.47,12406.00
833.25,830.50,696.86,12424.00
833.20,830.46,696.25,12447.00
833.15,830.41,695.64,12502.00
833.09,830.37,695.04,12471.00
833.04,830.33,694.43,12666.00
832.99,830.29,693.82,12577.00
832.94,830.25,693.22,12672.00
832.89,830.20,692.61,12723.00
832.83,830.16,692.00,12906.00
832.78,830.12,691.40,12842.00
832.73,830.08,690.79,12877.00
832.68,830.04,690.18,12880.00
832.63,829.99,689.57,12870.00
832.57,829.95,688.97,12854.00
832.52,829.91,688.36,12895.00
832.47,829.87,687.75,12805.00
832.42,829.83,687.14,12770.00
832.37,829.78,686.54,12831.00
832.31,829.74,685.93,12859.00
832.26,829.70,685.32,12940.00
832.21,829.66,684.71,13002.00
832.16,829.62,684.10,13034.00
832.10,829.57,683.50,13011.00
832.05,829.53,682.89,13105.00
832.00,829.49,682.28,13140.00
831.95,829.45,681.67,13180.00
831.90,829.41,681.06,13246.00
831.84,829.36,680.45,13357.00
831.79,829.32,679.85,13427.00
831.74,829.28,679.24,13458.00
831.69,829.24,678.63,13578.00
831.64,829.20,678.02,13605.00
831.58,829.15,677.41,13711.00
831.53,829.11,676.80,13789.00
831.48,829.07,676.19,13857.00
831.43,829.03,675.59,13860.00
831.38,828.99,674.98,13974.00
831.32,828.95,674.37,14030.00
831.27,828.90,673.76,14091.00
831.22,828.86,673.15,14137.00
831.17,828.82,672.54,14320.00
831.11,828.78,671.93,14417.00
831.06,828.74,671.32,14496.00
831.01,828.69,670.71,14586.00
830.96,828.65,670.10,14723.00
830.91,828.61,669.49,14897.00
830.85,828.57,668.88,15071.00
830.80,828.53,668.27,15193.00
830.75,828.48,667.66,15444.00
830.70,828.44,667.06,15605.00
830.65,828.40,666.45,15874.00
830.59,828.36,665.84,15828.00
830.54,828.32,665.23,16037.00
830.49,828.27,664.62,16107.00
830.44,828.23,664.01,16278.00
830.39,828.19,663.40,16309.00
830.33,828.15,662.79,16547.00
830.28,828.11,662.18,16640.00
830.23,828.06,661.56,16670.00
830.18,828.02,660.95,16777.00
830.13,827.98,660.34,16913.00
830.07,827.94,659.73,16948.00
830.02,827.90,659.12,17081.00
829.97,827.85,658.51,17139.00
829.92,827.81,657.90,17264.00
829.86,827.77,657.29,17328.00
829.81,827.73,656.68,17547.00
829.76,827.69,656.07,17690.00
829.71,827.64,655.46,17766.00
829.66,827.60,654.85,17862.00
829.60,827.56,654.24,17963.00
829.55,827.52,653.63,18192.00
829.50,827.48,653.01,18254.00
829.45,827.44,652.40,18380.00
829.40,827.39,651.79,18485.00
829.34,827.35,651.18,18510.00
829.29,827.31,650.57,18645.00
829.24,827.27,649.96,18645.00
829.19,827.23,649.35,18851.00
829.14,827.18,648.74,18968.00
829.08,827.14,648.12,18968.00
829.03,827.10,647.51,19030.00
828.98,827.06,646.90,19264.00
828.93,827.02,646.29,19196.00
828.87,826.97,645.68,19321.00
828.82,826.93,645.06,19436.00
828.77,826.89,644.45,19465.00
828.72,826.85,643.84,19579.00
828.67,826.81,643.23,19593.00
828.61,826.76,642.62,19638.00
828.56,826.72,642.00,19674.00
828.51,826.68,641.39,19812.00
828.46,826.64,640.78,19827.00
828.41,826.60,640.17,19837.00
828.35,826.55,639.55,19787.00
828.30,826.51,638.94,19878.00
828.25,826.47,638.33,19974.00
828.20,826.43,637.72,19893.00
828.15,826.39,637.10,19925.00
828.09,826.34,636.49,19922.00
828.04,826.30,635.88,19956.00
827.99,826.26,635.26,19998.00
827.94,826.22,634.65,19991.00
827.88,826.18,634.04,19991.00
827.83,826.13,633.43,19944.00
827.78,826.09,632.81,19977.00
827.73,826.05,632.20,20002.00
827.68,826.01,631.59,20002.00
827.62,825.97,630.97,19903.00
827.57,825.92,630.36,19948.00
827.52,825.88,629.75,19934.00
827.47,825.84,629.13,20030.00
827.42,825.80,628.52,20081.00
827.36,825.76,627.90,20002.00
827.31,825.72,627.29,20002.00
827.26,825.67,626.68,19995.00
827.21,825.63,626.06,19914.00
827.16,825.59,625.45,19894.00
827.10,825.55,624.84,19903.00
827.05,825.51,624.22,19801.00
827.00,825.46,623.61,19931.00
826.95,825.42,622.99,19872.00
826.90,825.38,622.38,19832.00
826.84,825.34,621.76,19833.00
826.79,825.30,621.15,19894.00
826.74,825.25,620.54,19809.00
826.69,825.21,619.92,19779.00
826.63,825.17,619.31,19750.00
826.58,825.13,618.69,19883.00
826.53,825.09,618.08,19678.00
826.48,825.04,617.46,19730.00
826.43,825.00,616.85,19770.00
826.37,824.96,616.23,19771.00
826.32,824.92,615.62,19734.00
826.27,824.88,615.00,19642.00
826.22,824.83,614.39,19567.00
826.17,824.79,613.77,19591.00
826.11,824.75,613.16,19543.00
826.06,824.71,612.54,19451.00
826.01,824.67,611.93,19500.00
825.96,824.62,611.31,19405.00
825.91,824.58,610.70,19310.00
825.85,824.54,610.08,19337.00
825.80,824.50,609.47,19242.00
825.75,824.46,608.85,19142.00
825.70,824.41,608.23,19097.00
825.64,824.37,607.62,18964.00
825.59,824.33,607.00,18987.00
825.54,824.29,606.39,18908.00
825.49,824.25,605.77,18832.00
825.44,824.21,605.15,18719.00
825.38,824.16,604.54,18646.00
825.33,824.12,603.92,18510.00
825.28,824.08,603.31,18351.00
825.23,824.04,602.69,18296.00
825.18,824.00,602.07,18080.00
825.12,823.95,601.46,18031.00
825.07,823.91,600.84,17869.00
825.02,823.87,600.22,17866.00
824.97,823.83,599.61,17626.00
824.92,823.79,598.99,17485.00
824.86,823.74,598.37,17385.00
824.81,823.70,597.76,17194.00
824.76,823.66,597.14,17138.00
824.71,823.62,596.52,16879.00
824.65,823.58,595.91,16710.00
824.60,823.53,595.29,16581.00
824.55,823.49,594.67,16424.00
824.50,823.45,594.06,16244.00
824.45,823.41,593.44,15999.00
824.39,823.37,592.82,15906.00
824.34,823.32,592.20,15641.00
824.29,823.28,591.59,15515.00
824.24,823.24,590.97,15343.00
824.19,823.20,590.35,15180.00
824.13,823.16,589.73,14906.00
824.08,823.11,589.12,14794.00
824.03,823.07,588.50,14669.00
823.98,823.03,587.88,14381.00
823.93,822.99,587.26,14249.00
823.87,822.95,586.65,14104.00
823.82,822.90,586.03,14011.00
823.77,822.86,585.41,13814.00
823.72,822.82,584.79,13609.00
823.67,822.78,584.17,13411.00
823.61,822.74,583.56,13198.00
823.56,822.69,582.94,13052.00
823.51,822.65,582.32,12867.00
823.46,822.61,581.70,12783.00
823.40,822.57,581.08,12529.00
823.35,822.53,580.46,12455.00
823.30,822.49,579.85,12323.00
823.25,822.44,579.23,12249.00
823.20,822.40,578.61,12096.00
823.14,822.36,577.99,11947.00
823.09,822.32,577.37,11774.00
823.04,822.28,576.75,11751.00
822.99,822.23,576.13,11612.00
822.94,822.19,575.51,11468.00
822.88,822.15,574.89,11307.00
822.83,822.11,574.28,11306.00
822.78,822.07,573.66,11165.00
822.73,822.02,573.04,11044.00
822.68,821.98,572.42,10947.00
822.62,821.94,571.80,10831.00
822.57,821.90,571.18,10752.00
822.52,821.86,570.56,10718.00
822.47,821.81,569.94,10478.00
822.41,821.77,569.32,10524.00
822.36,821.73,568.70,10416.00
822.31,821.69,568.08,10341.00
822.26,821.65,567.46,10274.00
822.21,821.60,566.84,10216.00
822.15,821.56,566.22,10190.00
822.10,821.52,565.60,10083.00
822.05,821.48,564.98,9981.00
822.00,821.44,564.36,9945.00
821.95,821.39,563.74,9848.00
821.89,821.35,563.12,9811.00
821.84,821.31,562.50,9723.00
821.79,821.27,561.88,9652.00
821.74,821.23,561.26,9573.00
821.69,821.18,560.64,9551.00
821.63,821.14,560.02,9546.00
821.58,821.10,559.40,9535.00
821.53,821.06,558.78,9485.00
821.48,821.02,558.16,9527.00
821.42,820.98,557.53,9389.00
821.37,820.93,556.91,9359.00
821.32,820.89,556.29,9410.00
821.27,820.85,555.67,9376.00
821.22,820.81,555.05,9379.00
821.16,820.77,554.43,9415.00
821.11,820.72,553.81,9465.00
821.06,820.68,553.19,9391.00
821.01,820.64,552.57,9427.00
820.96,820.60,551.94,9520.00
820.90,820.56,551.32,9565.00
820.85,820.51,550.70,9564.00
820.80,820.47,550.08,9629.00
820.75,820.43,549.46,9702.00
820.70,820.39,548.84,9802.00
820.64,820.35,548.21,9893.00
820.59,820.30,547.59,9968.00
820.54,820.26,546.97,10146.00
820.49,820.22,546.35,10196.00
820.44,820.18,545.73,10373.00
820.38,820.14,545.10,10441.00
820.33,820.09,544.48,10658.00
820.28,820.05,543.86,10691.00
820.23,820.01,543.24,10875.00
820.17,819.97,542.62,10990.00
820.12,819.93,541.99,11173.00
820.07,819.88,541.37,11292.00
820.02,819.84,540.75,11389.00
819.97,819.80,540.12,11524.00
819.91,819.76,539.50,11692.00
819.86,819.72,538.88,11823.00
819.81,819.67,538.26,11921.00
819.76,819.63,537.63,12042.00
819.71,819.59,537.01,12152.00
819.65,819.55,536.39,12170.00
819.60,819.51,535.76,12325.00
819.55,819.47,535.14,12394.00
819.50,819.42,534.52,12512.00
819.45,819.38,533.90,12658.00
819.39,819.34,533.27,12652.00
819.34,819.30,532.65,12767.00
819.29,819.26,532.02,12803.00
819.24,819.21,531.40,12823.00
819.18,819.17,530.78,12929.00
819.13,819.13,530.15,12947.00
819.08,819.09,529.53,13051.00
819.03,819.05,528.91,13102.00
818.98,819.00,528.28,13124.00
818.92,818.96,527.66,13195.00
818.87,818.92,527.03,13194.00
818.82,818.88,526.41,13203.00
818.77,818.84,525.79,13218.00
818.72,818.79,525.16,13311.00
818.66,818.75,524.54,13278.00
818.61,818.71,523.91,13260.00
818.56,818.67,523.29,13329.00
818.51,818.63,522.67,13277.00
818.46,818.58,522.04,13349.00
818.40,818.54,521.42,13354.00
818.35,818.50,520.79,13291.00
818.30,818.46,520.17,13340.00
818.25,818.42,519.54,13347.00
818.19,818.37,518.92,13244.00
818.14,818.33,518.29,13303.00
818.09,818.29,517.67,13305.00
818.04,818.25,517.04,13350.00
817.99,818.21,516.42,13271.00
817.93,818.16,515.79,13245.00
817.88,818.12,515.17,13291.00
817.83,818.08,514.54,13405.00
817.78,818.04,513.92,13262.00
817.73,818.00,513.29,13267.00
817.67,817.95,512.67,13248.00
817.62,817.91,512.04,13358.00
817.57,817.87,511.41,13333.00
817.52,817.83,510.79,13357.00
817.47,817.79,510.16,13316.00
817.41,817.75,509.54,13386.00
817.36,817.70,508.91,13357.00
817.31,817.66,508.29,13289.00
817.26,817.62,507.66,13330.00
817.21,817.58,507.03,13385.00
817.15,817.54,506.41,13344.00
817.10,817.49,505.78,13425.00
817.05,817.45,505.16,13350.00
817.00,817.41,504.53,13361.00
816.94,817.37,503.90,13426.00
816.89,817.33,503.28,13418.00
816.84,817.28,502.65,13489.00
816.79,817.24,502.02,13506.00
816.74,817.20,501.40,13407.00
816.68,817.16,500.77,13490.00
816.63,817.12,500.14,13500.00
816.58,817.07,499.52,13492.00
816.53,817.03,498.89,13567.00
816.48,816.99,498.26,13586.00
816.42,816.95,497.64,13640.00
816.37,816.91,497.01,13564.00
816.32,816.86,496.38,13573.00
816.27,816.82,495.75,13598.00
816.22,816.78,495.13,13584.00
816.16,816.74,494.50,13653.00
816.11,816.70,493.87,13658.00
816.06,816.65,493.25,13575.00
816.01,816.61,492.62,13628.00
815.95,816.57,491.99,13672.00
815.90,816.53,491.36,13588.00
815.85,816.49,490.74,13736.00
815.80,816.44,490.11,13624.00
815.75,816.40,489.48,13630.00
815.69,816.36,488.85,13641.00
815.64,816.32,488.22,13710.00
815.59,816.28,487.60,13647.00
815.54,816.24,486.97,13628.00
815.49,816.19,486.34,13614.00
815.43,816.15,485.71,13677.00
815.38,816.11,485.08,13722.00
815.33,816.07,484.45,13652.00
815.28,816.03,483.83,13574.00
815.23,815.98,483.20,13716.00
815.17,815.94,482.57,13633.00
815.12,815.90,481.94,13669.00
815.07,815.86,481.31,13639.00
815.02,815.82,480.68,13640.00
814.96,815.77,480.05,13630.00
814.91,815.73,479.43,13702.00
814.86,815.69,478.80,13700.00
814.81,815.65,478.17,13652.00
814.76,815.61,477.54,13624.00
814.70,815.56,476.91,13618.00
814.65,815.52,476.28,13624.00
814.60,815.48,475.65,13576.00
814.55,815.44,475.02,13483.00
814.50,815.40,474.39,13581.00
814.44,815.35,473.76,13500.00
814.39,815.31,473.13,13487.00
814.34,815.27,472.50,13518.00
814.29,815.23,471.87,13439.00
814.24,815.19,471.24,13425.00
814.18,815.14,470.61,13333.00
814.13,815.10,469.98,13319.00
814.08,815.06,469.36,13247.00
814.03,815.02,468.73,13197.00
813.97,814.98,468.10,13168.00
813.92,814.93,467.46,13090.00
813.87,814.89,466.83,13007.00
813.82,814.85,466.20,12929.00
813.77,814.81,465.57,12817.00
813.71,814.77,464.94,12740.00
813.66,814.73,464.31,12664.00
813.61,814.68,463.68,12505.00
813.56,814.64,463.05,12332.00
813.51,814.60,462.42,12258.00
813.45,814.56,461.79,12139.00
813.40,814.52,461.16,11896.00
813.35,814.47,460.53,11766.00
813.30,814.43,459.90,11583.00
813.25,814.39,459.27,11417.00
813.19,814.35,458.64,11242.00
813.14,814.31,458.01,11120.00
813.09,814.26,457.37,10933.00
813.04,814.22,456.74,10768.00
812.99,814.18,456.11,10635.00
812.93,814.14,455.48,10452.00
812.88,814.10,454.85,10235.00
812.83,814.05,454.22,10098.00
812.78,814.01,453.59,9859.00
812.72,813.97,452.96,9699.00
812.67,813.93,452.32,9636.00
812.62,813.89,451.69,9473.00
812.57,813.84,451.06,9308.00
812.52,813.80,450.43,9126.00
812.46,813.76,449.80,8964.00
812.41,813.72,449.16,8966.00
812.36,813.68,448.53,8796.00
812.31,813.63,447.90,8752.00
812.26,813.59,447.27,8611.00
812.20,813.55,446.64,8582.00
812.15,813.51,446.00,8473.00
812.10,813.47,445.37,8413.00
812.05,813.42,444.74,8377.00
812.00,813.38,444.11,8348.00
811.94,813.34,443.47,8279.00
811.89,813.30,442.84,8344.00
811.84,813.26,442.21,8221.00
811.79,813.21,441.58,8247.00
811.73,813.17,440.94,8194.00
811.68,813.13,440.31,8232.00
811.63,813.09,439.68,8177.00
811.58,813.05,439.04,8255.00
811.53,813.01,438.41,8227.00
811.47,812.96,437.78,8227.00
811.42,812.92,437.14,8269.00
811.37,812.88,436.51,8277.00
811.32,812.84,435.88,8266.00
811.27,812.80,435.24,8355.00
811.21,812.75,434.61,8344.00
811.16,812.71,433.98,8389.00
811.11,812.67,433.34,8444.00
811.06,812.63,432.71,8522.00
811.01,812.59,432.08,8586.00
810.95,812.54,431.44,8680.00
810.90,812.50,430.81,8787.00
810.85,812.46,430.17,8932.00
810.80,812.42,429.54,9033.00
810.74,812.38,428.91,9176.00
810.69,812.33,428.27,9304.00
810.64,812.29,427.64,9480.00
810.59,812.25,427.00,9622.00
810.54,812.21,426.37,9822.00
810.48,812.17,425.74,9946.00
810.43,812.12,425.10,10204.00
810.38,812.08,424.47,10298.00
810.33,812.04,423.83,10542.00
810.28,812.00,423.20,10624.00
810.22,811.96,422.56,10876.00
810.17,811.91,421.93,11083.00
810.12,811.87,421.29,11284.00
810.07,811.83,420.66,11459.00
810.02,811.79,420.02,11699.00
809.96,811.75,419.39,11820.00
809.91,811.70,418.75,12113.00
809.86,811.66,418.12,12237.00
809.81,811.62,417.48,12414.00
809.76,811.58,416.85,12472.00
809.70,811.54,416.21,12824.00
809.65,811.50,415.58,12921.00
809.60,811.45,414.94,13057.00
809.55,811.41,414.31,13108.00
809.49,811.37,413.67,13313.00
809.44,811.33,413.03,13364.00
809.39,811.29,412.40,13502.00
809.34,811.24,411.76,13630.00
809.29,811.20,411.13,13724.00
809.23,811.16,410.49,13733.00
809.18,811.12,409.85,13938.00
809.13,811.08,409.22,13935.00
809.08,811.03,408.58,14092.00
809.03,810.99,407.95,14157.00
808.97,810.95,407.31,14207.00
808.92,810.91,406.67,14247.00
808.87,810.87,406.04,14315.00
808.82,810.82,405.40,14357.00
808.77,810.78,404.76,14500.00
808.71,810.74,404.13,14499.00
808.66,810.70,403.49,14564.00
808.61,810.66,402.85,14688.00
808.56,810.61,402.22,14648.00
808.50,810.57,401.58,14660.00
808.45,810.53,400.94,14709.00
808.40,810.49,400.31,14743.00
808.35,810.45,399.67,14782.00
808.30,810.40,399.03,14868.00
808.24,810.36,398.39,14819.00
808.19,810.32,397.76,14910.00
808.14,810.28,397.12,14936.00
808.09,810.24,396.48,14888.00
808.04,810.19,395.84,15079.00
807.98,810.15,395.21,15070.00
807.93,810.11,394.57,15112.00
807.88,810.07,393.93,15197.00
807.83,810.03,393.29,15174.00
807.78,809.98,392.66,15258.00
807.72,809.94,392.02,15314.00
807.67,809.90,391.38,15422.00
807.62,809.86,390.74,15430.00
807.57,809.82,390.10,15549.00
807.51,809.78,389.47,15459.00
807.46,809.73,388.83,15627.00
807.41,809.69,388.19,15667.00
807.36,809.65,387.55,15798.00
807.31,809.61,386.91,15886.00
807.25,809.57,386.27,16045.00
807.20,809.52,385.64,16094.00
807.15,809.48,385.00,16185.00
807.10,809.44,384.36,16364.00
807.05,809.40,383.72,16608.00
806.99,809.36,383.08,16728.00
806.94,809.31,382.44,16950.00
806.89,809.27,381.80,17228.00
806.84,809.23,381.16,17388.00
806.79,809.19,380.53,17761.00
806.73,809.15,379.89,17940.00
806.68,809.10,379.25,18350.00
806.63,809.06,378.61,18663.00
806.58,809.02,377.97,19031.00
806.53,808.98,377.33,19306.00
806.47,808.94,376.69,19716.00
806.42,808.89,376.05,20001.00
806.37,808.85,375.41,20506.00
806.32,808.81,374.77,20829.00
806.26,808.77,374.13,21010.00
806.21,808.73,373.49,21528.00
806.16,808.68,372.85,21954.00
806.11,808.64,372.21,22237.00
806.06,808.60,371.57,22627.00
806.00,808.56,370.93,22911.00
805.95,808.52,370.29,23139.00
805.90,808.47,369.65,23501.00
805.85,808.43,369.01,23823.00
805.80,808.39,368.37,24126.00
805.74,808.35,367.73,24417.00
805.69,808.31,367.09,24563.00
805.64,808.27,366.45,24964.00
805.59,808.22,365.81,25134.00
805.54,808.18,365.17,25436.00
805.48,808.14,364.53,25652.00
805.43,808.10,363.89,25913.00
805.38,808.06,363.25,26005.00
805.33,808.01,362.60,26067.00
805.27,807.97,361.96,26243.00
805.22,807.93,361.32,26401.00
805.17,807.89,360.68,26423.00
805.12,807.85,360.04,26539.00
805.07,807.80,359.40,26688.00
805.01,807.76,358.76,26832.00
804.96,807.72,358.12,26885.00
804.91,807.68,357.47,27010.00
804.86,807.64,356.83,27068.00
804.81,807.59,356.19,27272.00
804.75,807.55,355.55,27310.00
804.70,807.51,354.91,27419.00
804.65,807.47,354.27,27566.00
804.60,807.43,353.62,27560.00
804.55,807.38,352.98,27687.00
804.49,807.34,352.34,27803.00
804.44,807.30,351.70,27781.00
804.39,807.26,351.06,27874.00
804.34,807.22,350.41,27921.00
804.28,807.17,349.77,28016.00
804.23,807.13,349.13,28081.00
804.18,807.09,348.49,28128.00
804.13,807.05,347.85,28104.00
804.08,807.01,347.20,28184.00
804.02,806.96,346.56,28206.00
803.97,806.92,345.92,28354.00
803.92,806.88,345.27,28316.00
803.87,806.84,344.63,28357.00
803.82,806.80,343.99,28452.00
803.76,806.76,343.35,28540.00
803.71,806.71,342.70,28510.00
803.66,806.67,342.06,28705.00
803.61,806.63,341.42,28645.00
803.56,806.59,340.77,28831.00
803.50,806.55,340.13,28851.00
803.45,806.50,339.49,28954.00
803.40,806.46,338.84,28994.00
803.35,806.42,338.20,28945.00
803.30,806.38,337.56,29079.00
803.24,806.34,336.91,29122.00
803.19,806.29,336.27,29179.00
803.14,806.25,335.63,29163.00
803.09,806.21,334.98,29246.00
803.03,806.17,334.34,29462.00
802.98,806.13,333.69,29286.00
802.93,806.08,333.05,29461.00
802.88,806.04,332.41,29499.00
802.83,806.00,331.76,29622.00
802.77,805.96,331.12,29622.00
802.72,805.92,330.47,29663.00
802.67,805.87,329.83,29794.00
802.62,805.83,329.18,29739.00
802.57,805.79,328.54,29834.00
802.51,805.75,327.90,29809.00
802.46,805.71,327.25,29982.00
802.41,805.66,326.61,30088.00
802.36,805.62,325.96,30136.00
802.31,805.58,325.32,30123.00
802.25,805.54,324.67,30076.00
802.20,805.50,324.03,30268.00
802.15,805.45,323.38,30289.00
802.10,805.41,322.74,30285.00
802.04,805.37,322.09,30294.00
801.99,805.33,321.45,30315.00
801.94,805.29,320.80,30463.00
801.89,805.24,320.16,30543.00
801.84,805.20,319.51,30532.00
801.78,805.16,318.87,30604.00
801.73,805.12,318.22,30598.00
801.68,805.08,317.57,30669.00
801.63,805.04,316.93,30682.00
801.58,804.99,316.28,30760.00
801.52,804.95,315.64,30852.00
801.47,804.91,314.99,30766.00
801.42,804.87,314.34,30900.00
801.37,804.83,313.70,31056.00
801.32,804.78,313.05,31022.00
801.26,804.74,312.41,31021.00
801.21,804.70,311.76,31084.00
801.16,804.66,311.11,31204.00
801.11,804.62,310.47,31230.00
801.05,804.57,309.82,31064.00
801.00,804.53,309.17,31337.00
800.95,804.49,308.53,31250.00
800.90,804.45,307.88,31393.00
800.85,804.41,307.23,31408.00
800.79,804.36,306.59,31416.00
800.74,804.32,305.94,31445.00
800.69,804.28,305.29,31391.00
800.64,804.24,304.65,31555.00
800.59,804.20,304.00,31437.00
800.53,804.15,303.35,31640.00
800.48,804.11,302.71,31544.00
800.43,804.07,302.06,31661.00
800.38,804.03,301.41,31597.00
800.33,803.99,300.76,31718.00
800.27,803.94,300.12,31820.00
800.22,803.90,299.47,31783.00
800.17,803.86,298.82,31865.00
800.12,803.82,298.17,31863.00
800.07,803.78,297.53,31890.00
800.01,803.73,296.88,31972.00
799.96,803.69,296.23,31895.00
799.91,803.65,295.58,32031.00
799.86,803.61,294.94,32086.00
799.80,803.57,294.29,32121.00
799.75,803.53,293.64,32169.00
799.70,803.48,292.99,32231.00
799.65,803.44,292.34,32220.00
799.60,803.40,291.69,32281.00
799.54,803.36,291.05,32232.00
799.49,803.32,290.40,32460.00
799.44,803.27,289.75,32314.00
799.39,803.23,289.10,32378.00
799.34,803.19,288.45,32488.00
799.28,803.15,287.80,32563.00
799.23,803.11,287.15,32427.00
799.18,803.06,286.51,32584.00
799.13,803.02,285.86,32496.00
799.08,802.98,285.21,32565.00
799.02,802.94,284.56,32694.00
798.97,802.90,283.91,32663.00
798.92,802.85,283.26,32654.00
798.87,802.81,282.61,32697.00
798.81,802.77,281.96,32727.00
798.76,802.73,281.31,32862.00
798.71,802.69,280.66,32801.00
798.66,802.64,280.01,32851.00
798.61,802.60,279.36,32821.00
798.55,802.56,278.71,32868.00
798.50,802.52,278.06,32830.00
798.45,802.48,277.41,33015.00
798.40,802.43,276.76,32880.00
798.35,802.39,276.11,32980.00
798.29,802.35,275.46,32956.00
798.24,802.31,274.81,32967.00
798.19,802.27,274.16,33095.00
798.14,802.22,273.51,33060.00
798.09,802.18,272.86,33041.00
798.03,802.14,272.21,33186.00
797.98,802.10,271.56,33064.00
797.93,802.06,270.91,33162.00
797.88,802.02,270.26,33214.00
797.82,801.97,269.61,33202.00
797.77,801.93,268.96,33156.00
797.72,801.89,268.31,33134.00
797.67,801.85,267.66,33185.00
797.62,801.81,267.01,33231.00
797.56,801.76,266.36,33199.00
797.51,801.72,265.71,33219.00
797.46,801.68,265.06,33214.00
797.41,801.64,264.40,33239.00
797.36,801.60,263.75,33292.00
797.30,801.55,263.10,33281.00
797.25,801.51,262.45,33300.00
797.20,801.47,261.80,33377.00
797.15,801.43,261.15,33376.00
797.10,801.39,260.50,33343.00
797.04,801.34,259.84,33317.00
796.99,801.30,259.19,33330.00
796.94,801.26,258.54,33302.00
796.89,801.22,257.89,33403.00
796.84,801.18,257.24,33356.00
796.78,801.13,256.58,33419.00
796.73,801.09,255.93,33405.00
796.68,801.05,255.28,33339.00
796.63,801.01,254.63,33409.00
796.57,800.97,253.98,33429.00
796.52,800.92,253.32,33441.00
796.47,800.88,252.67,33474.00
796.42,800.84,252.02,33482.00
796.37,800.80,251.37,33480.00
796.31,800.76,250.71,33463.00
796.26,800.71,250.06,33497.00
796.21,800.67,249.41,33498.00
796.16,800.63,248.76,33498.00
796.11,800.59,248.10,33517.00
796.05,800.55,247.45,33471.00
796.00,800.50,246.80,33511.00
795.95,800.46,246.14,33497.00
795.90,800.42,245.49,33501.00
795.85,800.38,244.84,33481.00
795.79,800.34,244.18,33536.00
795.74,800.30,243.53,33536.00
795.69,800.25,242.88,33495.00
795.64,800.21,242.22,33547.00
795.58,800.17,241.57,33540.00
795.53,800.13,240.92,33521.00
795.48,800.09,240.26,33552.00
795.43,800.04,239.61,33550.00
795.38,800.00,238.96,33512.00
795.32,799.96,238.30,33534.00
795.27,799.92,237.65,33618.00
795.22,799.88,236.99,33612.00
795.17,799.83,236.34,33595.00
795.12,799.79,235.69,33587.00
795.06,799.75,235.03,33582.00
795.01,799.71,234.38,33571.00
794.96,799.67,233.72,33575.00
794.91,799.62,233.07,33566.00
794.86,799.58,232.41,33564.00
794.80,799.54,231.76,33563.00
794.75,799.50,231.10,33598.00
794.70,799.46,230.45,33588.00
794.65,799.41,229.79,33610.00
794.59,799.37,229.14,33615.00
794.54,799.33,228.48,33593.00
794.49,799.29,227.83,33606.00
794.44,799.25,227.17,33559.00
794.39,799.20,226.52,33600.00
794.33,799.16,225.86,33606.00
794.28,799.12,225.21,33602.00
794.23,799.08,224.55,33611.00
794.18,799.04,223.90,33596.00
794.13,798.99,223.24,33611.00
794.07,798.95,222.59,33634.00
794.02,798.91,221.93,33635.00
793.97,798.87,221.28,33626.00
793.92,798.83,220.62,33635.00
793.87,798.79,219.96,33643.00
793.81,798.74,219.31,33601.00
793.76,798.70,218.65,33606.00
793.71,798.66,218.00,33615.00
793.66,798.62,217.34,33639.00
793.61,798.58,216.68,33627.00
793.55,798.53,216.03,33616.00
793.50,798.49,215.37,33626.00
793.45,798.45,214.72,33652.00
793.40,798.41,214.06,33628.00
793.34,798.37,213.40,33624.00
793.29,798.32,212.75,33635.00
793.24,798.28,212.09,33630.00
793.19,798.24,211.43,33638.00
793.14,798.20,210.78,33626.00
793.08,798.16,210.12,33634.00
793.03,798.11,209.46,33642.00
792.98,798.07,208.80,33646.00
792.93,798.03,208.15,33646.00
792.88,797.99,207.49,33647.00
792.82,797.95,206.83,33654.00
792.77,797.90,206.18,33650.00
792.72,797.86,205.52,33652.00
792.67,797.82,204.86,33631.00
792.62,797.78,204.20,33652.00
792.56,797.74,203.55,33657.00
792.51,797.69,202.89,33650.00
792.46,797.65,202.23,33646.00
792.41,797.61,201.57,33657.00
792.35,797.57,200.92,33647.00
792.30,797.53,200.26,33654.00
792.25,797.48,199.60,33647.00
792.20,797.44,198.94,33650.00
792.15,797.40,198.28,33654.00
792.09,797.36,197.63,33656.00
792.04,797.32,196.97,33652.00
791.99,797.27,196.31,33659.00
791.94,797.23,195.65,33655.00
791.89,797.19,194.99,33660.00
791.83,797.15,194.33,33647.00
791.78,797.11,193.67,33655.00
791.73,797.07,193.02,33660.00
791.68,797.02,192.36,33652.00
791.63,796.98,191.70,33655.00
791.57,796.94,191.04,33655.00
791.52,796.90,190.38,33659.00
791.47,796.86,189.72,33658.00
791.42,796.81,189.06,33660.00
791.36,796.77,188.40,33658.00
791.31,796.73,187.74,33656.00
791.26,796.69,187.09,33660.00
791.21,796.65,186.43,33660.00
791.16,796.60,185.77,33659.00
791.10,796.56,185.11,33660.00
791.05,796.52,184.45,33659.00
791.00,796.48,183.79,33659.00
790.95,796.44,183.13,33654.00
790.90,796.39,182.47,33658.00
790.84,796.35,181.81,33660.00
790.79,796.31,181.15,33660.00
790.74,796.27,180.49,33656.00
790.69,796.23,179.83,33642.00
790.64,796.18,179.17,33659.00
790.58,796.14,178.51,33656.00
790.53,796.10,177.85,33659.00
790.48,796.06,177.19,33660.00
790.43,796.02,176.53,33660.00
790.38,795.97,175.87,33660.00
790.32,795.93,175.21,33660.00
790.27,795.89,174.55,33660.00
790.22,795.85,173.89,33658.00
790.17,795.81,173.22,33660.00
790.11,795.76,172.56,33660.00
790.06,795.72,171.90,33658.00
790.01,795.68,171.24,33660.00
789.96,795.64,170.58,33660.00
789.91,795.60,169.92,33660.00
789.85,795.56,169.26,33660.00
789.80,795.51,168.60,33660.00
789.75,795.47,167.94,33660.00
789.70,795.43,167.27,33656.00
789.65,795.39,166.61,33660.00
789.59,795.35,165.95,33660.00
789.54,795.30,165.29,33660.00
789.49,795.26,164.63,33660.00
789.44,795.22,163.97,33660.00
789.39,795.18,163.30,33653.00
789.33,795.14,162.64,33660.00
789.28,795.09,161.98,33660.00
789.23,795.05,161.32,33659.00
789.18,795.01,160.66,33660.00
789.12,794.97,160.00,33660.00
789.07,794.93,159.33,33657.00
789.02,794.88,158.67,33656.00
788.97,794.84,158.01,33660.00
788.92,794.80,157.35,33660.00
788.86,794.76,156.68,33655.00
788.81,794.72,156.02,33659.00
788.76,794.67,155.36,33660.00
788.71,794.63,154.70,33641.00
788.66,794.59,154.03,33646.00
788.60,794.55,153.37,33631.00
788.55,794.51,152.71,33623.00
788.50,794.46,152.04,33589.00
788.45,794.42,151.38,33588.00
788.40,794.38,150.72,33534.00
788.34,794.34,150.05,33487.00
788.29,794.30,149.39,33380.00
788.24,794.25,148.73,33206.00
788.19,794.21,148.06,33136.00
788.13,794.17,147.40,33036.00
788.08,794.13,146.74,32920.00
788.03,794.09,146.07,32767.00
787.98,794.05,145.41,32521.00
787.93,794.00,144.75,32359.00
787.87,793.96,144.08,32127.00
787.82,793.92,143.42,31900.00
787.77,793.88,142.75,31671.00
787.72,793.84,142.09,31498.00
787.67,793.79,141.43,31133.00
787.61,793.75,140.76,30954.00
787.56,793.71,140.10,30682.00
787.51,793.67,139.43,30416.00
787.46,793.63,138.77,30110.00
787.41,793.58,138.11,29954.00
787.35,793.54,137.44,29713.00
787.30,793.50,136.78,29416.00
787.25,793.46,136.11,29203.00
787.20,793.42,135.45,28944.00
787.15,793.37,134.78,28715.00
787.09,793.33,134.12,28587.00
787.04,793.29,133.45,28329.00
786.99,793.25,132.79,28210.00
786.94,793.21,132.12,28001.00
786.88,793.16,131.46,27820.00
786.83,793.12,130.79,27692.00
786.78,793.08,130.13,27544.00
786.73,793.04,129.46,27367.00
786.68,793.00,128.80,27366.00
786.62,792.95,128.13,27142.00
786.57,792.91,127.46,27120.00
786.52,792.87,126.80,27019.00
786.47,792.83,126.13,26966.00
786.42,792.79,125.47,26998.00
786.36,792.74,124.80,26894.00
786.31,792.70,124.14,26784.00
786.26,792.66,123.47,26814.00
786.21,792.62,122.80,26705.00
786.16,792.58,122.14,26779.00
786.10,792.53,121.47,26652.00
786.05,792.49,120.81,26725.00
786.00,792.45,120.14,26726.00
785.95,792.41,119.47,26725.00
785.89,792.37,118.81,26607.00
785.84,792.33,118.14,26670.00
785.79,792.28,117.47,26824.00
785.74,792.24,116.81,26856.00
785.69,792.20,116.14,26874.00
785.63,792.16,115.47,26824.00
785.58,792.12,114.81,26915.00
785.53,792.07,114.14,26969.00
785.48,792.03,113.47,26973.00
785.43,791.99,112.80,26954.00
785.37,791.95,112.14,27046.00
785.32,791.91,111.47,27217.00
785.27,791.86,110.80,27121.00
785.22,791.82,110.13,27256.00
785.17,791.78,109.47,27520.00
785.11,791.74,108.80,27505.00
785.06,791.70,108.13,27576.00
785.01,791.65,107.46,27624.00
784.96,791.61,106.80,27789.00
784.90,791.57,106.13,27860.00
784.85,791.53,105.46,27949.00
784.80,791.49,104.79,28065.00
784.75,791.44,104.13,28066.00
784.70,791.40,103.46,28276.00
784.64,791.36,102.79,28309.00
784.59,791.32,102.12,28404.00
784.54,791.28,101.45,28356.00
784.49,791.23,100.78,28603.00
784.44,791.19,100.12,28678.00
784.38,791.15,99.45,28860.00
784.33,791.11,98.78,28808.00
784.28,791.07,98.11,28851.00
784.23,791.02,97.44,29048.00
784.18,790.98,96.77,29130.00
784.12,790.94,96.10,29148.00
784.07,790.90,95.43,29257.00
784.02,790.86,94.77,29278.00
783.97,790.82,94.10,29344.00
783.92,790.77,93.43,29390.00
783.86,790.73,92.76,29479.00
783.81,790.69,92.09,29516.00
783.76,790.65,91.42,29475.00
783.71,790.61,90.75,29704.00
783.65,790.56,90.08,29817.00
783.60,790.52,89.41,29780.00
783.55,790.48,88.74,29844.00
783.50,790.44,88.07,29788.00
783.45,790.40,87.40,29979.00
783.39,790.35,86.73,29909.00
783.34,790.31,86.06,29974.00
783.29,790.27,85.39,30079.00
783.24,790.23,84.72,30039.00
783.19,790.19,84.05,30103.00
783.13,790.14,83.38,30185.00
783.08,790.10,82.71,30140.00
783.03,790.06,82.04,30377.00
782.98,790.02,81.37,30208.00
782.93,789.98,80.70,30402.00
782.87,789.93,80.03,30276.00
782.82,789.89,79.36,30519.00
782.77,789.85,78.69,30417.00
782.72,789.81,78.02,30469.00
782.66,789.77,77.35,30561.00
782.61,789.72,76.67,30671.00
782.56,789.68,76.00,30663.00
782.51,789.64,75.33,30627.00
782.46,789.60,74.66,30673.00
782.40,789.56,73.99,30739.00
782.35,789.51,73.32,30722.00
782.30,789.47,72.65,30854.00
782.25,789.43,71.98,30794.00
782.20,789.39,71.30,30888.00
782.14,789.35,70.63,30878.00
782.09,789.31,69.96,31031.00
782.04,789.26,69.29,30923.00
781.99,789.22,68.62,31081.00
781.94,789.18,67.95,31118.00
781.88,789.14,67.27,31145.00
781.83,789.10,66.60,31277.00
781.78,789.05,65.93,31222.00
781.73,789.01,65.26,31315.00
781.67,788.97,64.58,31295.00
781.62,788.93,63.91,31302.00
781.57,788.89,63.24,31437.00
781.52,788.84,62.57,31351.00
781.47,788.80,61.90,31342.00
781.41,788.76,61.22,31472.00
781.36,788.72,60.55,31613.00
781.31,788.68,59.88,31629.00
781.26,788.63,59.20,31614.00
781.21,788.59,58.53,31637.00
781.15,788.55,57.86,31741.00
781.10,788.51,57.19,31754.00
781.05,788.47,56.51,31832.00
781.00,788.42,55.84,31808.00
780.95,788.38,55.17,31842.00
780.89,788.34,54.49,31954.00
780.84,788.30,53.82,32071.00
780.79,788.26,53.15,31965.00
780.74,788.21,52.47,32211.00
780.69,788.17,51.80,32055.00
780.63,788.13,51.13,32095.00
780.58,788.09,50.45,32200.00
780.53,788.05,49.78,32230.00
780.48,788.00,49.10,32280.00
780.42,787.96,48.43,32271.00
780.37,787.92,47.76,32309.00
780.32,787.88,47.08,32363.00
780.27,787.84,46.41,32392.00
780.22,787.79,45.73,32402.00
780.16,787.75,45.06,32527.00
780.11,787.71,44.38,32491.00
780.06,787.67,43.71,32611.00
780.01,787.63,43.04,32573.00
779.96,787.59,42.36,32699.00
779.90,787.54,41.69,32662.00
779.85,787.50,41.01,32753.00
779.80,787.46,40.34,32816.00
779.75,787.42,39.66,32792.00
779.70,787.38,38.99,32751.00
779.64,787.33,38.31,32810.00
779.59,787.29,37.64,32951.00
779.54,787.25,36.96,32877.00
779.49,787.21,36.29,32999.00
779.43,787.17,35.61,32926.00
779.38,787.12,34.94,32927.00
779.33,787.08,34.26,33052.00
779.28,787.04,33.58,33110.00
779.23,787.00,32.91,33082.00
779.17,786.96,32.23,33048.00
779.12,786.91,31.56,33011.00
779.07,786.87,30.88,33100.00
779.02,786.83,30.21,33120.00
778.97,786.79,29.53,33140.00
778.91,786.75,28.85,33134.00
778.86,786.70,28.18,33168.00
778.81,786.66,27.50,33244.00
778.76,786.62,26.82,33201.00
778.71,786.58,26.15,33251.00
778.65,786.54,25.47,33279.00
778.60,786.49,24.80,33234.00
778.55,786.45,24.12,33263.00
778.50,786.41,23.44,33274.00
778.44,786.37,22.77,33331.00
778.39,786.33,22.09,33353.00
778.34,786.28,21.41,33330.00
778.29,786.24,20.74,33283.00
778.24,786.20,20.06,33344.00
778.18,786.16,19.38,33274.00
778.13,786.12,18.70,33328.00
778.08,786.08,18.03,33257.00
778.03,786.03,17.35,33282.00
777.98,785.99,16.67,33246.00
777.92,785.95,15.99,33235.00
777.87,785.91,15.32,33220.00
777.82,785.87,14.64,33286.00
777.77,785.82,13.96,33182.00
777.72,785.78,13.28,33209.00
777.66,785.74,12.61,33114.00
777.61,785.70,11.93,33202.00
777.56,785.66,11.25,33142.00
777.51,785.61,10.57,33181.00
777.46,785.57,9.89,33135.00
777.40,785.53,9.22,33182.00
777.35,785.49,8.54,33093.00
777.30,785.45,7.86,33149.00
777.25,785.40,7.18,33067.00
777.19,785.36,6.50,33100.00
777.14,785.32,5.83,33009.00
777.09,785.28,5.15,33038.00
777.04,785.24,4.47,32991.00
776.99,785.19,3.79,32971.00
776.93,785.15,3.11,32978.00
776.88,785.11,2.43,32959.00
776.83,785.07,1.75,32850.00
776.78,785.03,1.07,32935.00
776.73,784.98,0.39,32891.00
776.67,784.94,-0.28,32874.00
776.62,784.90,-0.96,32859.00
776.57,784.86,-1.64,32856.00
776.52,784.82,-2.32,32862.00
776.47,784.77,-3.00,32927.00
776.41,784.73,-3.68,32894.00
776.36,784.69,-4.36,32845.00
776.31,784.65,-5.04,32892.00
776.26,784.61,-5.72,32805.00
776.20,784.56,-6.40,32814.00
776.15,784.52,-7.08,32810.00
776.10,784.48,-7.76,32790.00
776.05,784.44,-8.44,32725.00
776.00,784.40,-9.12,32720.00
775.94,784.36,-9.80,32657.00
775.89,784.31,-10.48,32644.00
775.84,784.27,-11.16,32598.00
775.79,784.23,-11.84,32580.00
775.74,784.19,-12.52,32488.00
775.68,784.15,-13.20,32449.00
775.63,784.10,-13.88,32391.00
775.58,784.06,-14.56,32297.00
775.53,784.02,-15.24,32218.00
775.48,783.98,-15.93,32176.00
775.42,783.94,-16.61,32114.00
775.37,783.89,-17.29,32024.00
775.32,783.85,-17.97,32012.00
775.27,783.81,-18.65,32108.00
775.21,783.77,-19.33,31962.00
775.16,783.73,-20.01,32035.00
775.11,783.68,-20.69,32120.00
775.06,783.64,-21.37,32148.00
775.01,783.60,-22.06,32165.00
774.95,783.56,-22.74,32203.00
774.90,783.52,-23.42,32245.00
774.85,783.47,-24.10,32176.00
774.80,783.43,-24.78,32232.00
774.75,783.39,-25.46,32254.00
774.69,783.35,-26.15,32183.00
774.64,783.31,-26.83,32226.00
774.59,783.26,-27.51,32343.00
774.54,783.22,-28.19,32343.00
774.49,783.18,-28.87,32321.00
774.43,783.14,-29.56,32303.00
774.38,783.10,-30.24,32371.00
774.33,783.05,-30.92,32362.00
774.28,783.01,-31.60,32393.00
774.23,782.97,-32.29,32420.00
774.17,782.93,-32.97,32439.00
774.12,782.89,-33.65,32403.00
774.07,782.85,-34.34,32437.00
774.02,782.80,-35.02,32470.00
773.96,782.76,-35.70,32606.00
773.91,782.72,-36.38,32601.00
773.86,782.68,-37.07,32684.00
773.81,782.64,-37.75,32704.00
773.76,782.59,-38.43,32870.00
773.70,782.55,-39.12,32887.00
773.65,782.51,-39.80,32999.00
773.60,782.47,-40.48,33024.00
773.55,782.43,-41.17,33132.00
773.50,782.38,-41.85,33149.00
773.44,782.34,-42.53,33129.00
773.39,782.30,-43.22,33204.00
773.34,782.26,-43.90,33247.00
773.29,782.22,-44.59,33270.00
773.24,782.17,-45.27,33277.00
773.18,782.13,-45.95,33319.00
773.13,782.09,-46.64,33388.00
773.08,782.05,-47.32,33344.00
773.03,782.01,-48.01,33359.00
772.97,781.96,-48.69,33345.00
772.92,781.92,-49.38,33409.00
772.87,781.88,-50.06,33455.00
772.82,781.84,-50.74,33486.00
772.77,781.80,-51.43,33456.00
772.71,781.75,-52.11,33479.00
772.66,781.71,-52.80,33522.00
772.61,781.67,-53.48,33490.00
772.56,781.63,-54.17,33553.00
772.51,781.59,-54.85,33566.00
772.45,781.54,-55.54,33571.00
772.40,781.50,-56.22,33587.00
772.35,781.46,-56.91,33589.00
772.30,781.42,-57.59,33612.00
772.25,781.38,-58.28,33585.00
772.19,781.34,-58.96,33573.00
772.14,781.29,-59.65,33633.00
772.09,781.25,-60.34,33635.00
772.04,781.21,-61.02,33619.00
771.98,781.17,-61.71,33639.00
771.93,781.13,-62.39,33644.00
771.88,781.08,-63.08,33626.00
771.83,781.04,-63.77,33641.00
771.78,781.00,-64.45,33652.00
771.72,780.96,-65.14,33637.00
771.67,780.92,-65.82,33653.00
771.62,780.87,-66.51,33655.00
771.57,780.83,-67.20,33655.00
771.52,780.79,-67.88,33655.00
771.46,780.75,-68.57,33657.00
771.41,780.71,-69.26,33656.00
771.36,780.66,-69.94,33654.00
771.31,780.62,-70.63,33660.00
771.26,780.58,-71.32,33656.00
771.20,780.54,-72.00,33660.00
771.15,780.50,-72.69,33660.00
771.10,780.45,-73.38,33660.00
771.05,780.41,-74.06,33660.00
771.00,780.37,-74.75,33660.00
770.94,780.33,-75.44,33660.00
770.89,780.29,-76.12,33660.00
770.84,780.24,-76.81,33660.00
770.79,780.20,-77.50,33660.00
770.73,780.16,-78.19,33660.00
770.68,780.12,-78.87,33660.00
770.63,780.08,-79.56,33660.00
770.58,780.03,-80.25,33660.00
770.53,779.99,-80.94,33660.00
770.47,779.95,-81.63,33660.00
770.42,779.91,-82.31,33660.00
770.37,779.87,-83.00,33660.00
770.32,779.82,-83.69,33660.00
770.27,779.78,-84.38,33660.00
770.21,779.74,-85.07,33660.00
770.16,779.70,-85.75,33660.00
770.11,779.66,-86.44,33660.00
770.06,779.62,-87.13,33657.00
770.01,779.57,-87.82,33660.00
769.95,779.53,-88.51,33660.00
769.90,779.49,-89.20,33660.00
769.85,779.45,-89.89,33660.00
769.80,779.41,-90.57,33660.00
769.74,779.36,-91.26,33660.00
769.69,779.32,-91.95,33660.00
769.64,779.28,-92.64,33660.00
769.59,779.24,-93.33,33660.00
769.54,779.20,-94.02,33660.00
769.48,779.15,-94.71,33660.00
769.43,779.11,-95.40,33660.00
769.38,779.07,-96.09,33660.00
769.33,779.03,-96.78,33660.00
769.28,778.99,-97.47,33660.00
769.22,778.94,-98.16,33660.00
769.17,778.90,-98.85,33660.00
769.12,778.86,-99.54,33660.00
769.07,778.82,-100.23,33660.00
769.02,778.78,-100.92,33660.00
768.96,778.73,-101.61,33660.00
768.91,778.69,-102.30,33660.00
768.86,778.65,-102.99,33660.00
768.81,778.61,-103.68,33660.00
768.75,778.57,-104.37,33660.00
768.70,778.52,-105.06,33660.00
768.65,778.48,-105.75,33660.00
768.60,778.44,-106.44,33660.00
768.55,778.40,-107.13,33660.00
768.49,778.36,-107.82,33660.00
768.44,778.31,-108.51,33657.00
768.39,778.27,-109.20,33660.00
768.34,778.23,-109.89,33660.00
768.29,778.19,-110.58,33660.00
768.23,778.15,-111.27,33660.00
768.18,778.11,-111.97,33660.00
768.13,778.06,-112.66,33660.00
768.08,778.02,-113.35,33660.00
768.03,777.98,-114.04,33660.00
767.97,777.94,-114.73,33660.00
767.92,777.90,-115.42,33659.00
767.87,777.85,-116.11,33660.00
767.82,777.81,-116.81,33660.00
767.77,777.77,-117.50,33660.00
767.71,777.73,-118.19,33659.00
767.66,777.69,-118.88,33657.00
767.61,777.64,-119.57,33660.00
767.56,777.60,-120.27,33660.00
767.50,777.56,-120.96,33660.00
767.45,777.52,-121.65,33660.00
767.40,777.48,-122.34,33659.00
767.35,777.43,-123.03,33655.00
767.30,777.39,-123.73,33657.00
767.24,777.35,-124.42,33656.00
767.19,777.31,-125.11,33660.00
767.14,777.27,-125.80,33657.00
767.09,777.22,-126.50,33660.00
767.04,777.18,-127.19,33654.00
766.98,777.14,-127.88,33652.00
766.93,777.10,-128.58,33660.00
766.88,777.06,-129.27,33657.00
766.83,777.01,-129.96,33649.00
766.78,776.97,-130.65,33653.00
766.72,776.93,-131.35,33655.00
766.67,776.89,-132.04,33650.00
766.62,776.85,-132.73,33640.00
766.57,776.80,-133.43,33637.00
766.51,776.76,-134.12,33620.00
766.46,776.72,-134.82,33622.00
766.41,776.68,-135.51,33623.00
766.36,776.64,-136.20,33613.00
766.31,776.59,-136.90,33589.00
766.25,776.55,-137.59,33571.00
766.20,776.51,-138.28,33534.00
766.15,776.47,-138.98,33519.00
766.10,776.43,-139.67,33495.00
766.05,776.39,-140.37,33421.00
765.99,776.34,-141.06,33380.00
765.94,776.30,-141.76,33322.00
765.89,776.26,-142.45,33239.00
765.84,776.22,-143.14,33193.00
765.79,776.18,-143.84,33013.00
765.73,776.13,-144.53,32924.00
765.68,776.09,-145.23,32769.00
765.63,776.05,-145.92,32692.00
765.58,776.01,-146.62,32582.00
765.52,775.97,-147.31,32496.00
765.47,775.92,-148.01,32351.00
765.42,775.88,-148.70,32063.00
765.37,775.84,-149.40,31998.00
765.32,775.80,-150.09,31922.00
765.26,775.76,-150.79,31559.00
765.21,775.71,-151.48,31455.00
765.16,775.67,-152.18,31380.00
765.11,775.63,-152.88,31153.00
765.06,775.59,-153.57,31041.00
765.00,775.55,-154.27,30835.00
764.95,775.50,-154.96,30708.00
764.90,775.46,-155.66,30494.00
764.85,775.42,-156.35,30465.00
764.80,775.38,-157.05,30348.00
764.74,775.34,-157.75,30084.00
764.69,775.29,-158.44,30047.00
764.64,775.25,-159.14,29906.00
764.59,775.21,-159.84,29686.00
764.54,775.17,-160.53,29572.00
764.48,775.13,-161.23,29435.00
764.43,775.08,-161.92,29385.00
764.38,775.04,-162.62,29316.00
764.33,775.00,-163.32,29157.00
764.27,774.96,-164.01,29070.00
764.22,774.92,-164.71,28988.00
764.17,774.88,-165.41,28980.00
764.12,774.83,-166.11,28841.00
764.07,774.79,-166.80,28827.00
764.01,774.75,-167.50,28727.00
763.96,774.71,-168.20,28826.00
763.91,774.67,-168.89,28579.00
763.86,774.62,-169.59,28737.00
763.81,774.58,-170.29,28648.00
763.75,774.54,-170.99,28466.00
763.70,774.50,-171.68,28608.00
763.65,774.46,-172.38,28549.00
763.60,774.41,-173.08,28532.00
763.55,774.37,-173.78,28303.00
763.49,774.33,-174.48,28303.00
763.44,774.29,-175.17,28333.00
763.39,774.25,-175.87,28187.00
763.34,774.20,-176.57,28012.00
763.28,774.16,-177.27,28047.00
763.23,774.12,-177.97,27905.00
763.18,774.08,-178.66,27819.00
763.13,774.04,-179.36,27619.00
763.08,773.99,-180.06,27574.00
763.02,773.95,-180.76,27391.00
762.97,773.91,-181.46,27307.00
762.92,773.87,-182.16,27131.00
762.87,773.83,-182.86,26978.00
762.82,773.78,-183.55,26910.00
762.76,773.74,-184.25,26768.00
762.71,773.70,-184.95,26588.00
762.66,773.66,-185.65,26396.00
762.61,773.62,-186.35,26362.00
762.56,773.57,-187.05,26098.00
762.50,773.53,-187.75,26016.00
762.45,773.49,-188.45,25816.00
762.40,773.45,-189.15,25695.00
762.35,773.41,-189.85,25530.00
762.29,773.37,-190.55,25443.00
762.24,773.32,-191.25,25274.00
762.19,773.28,-191.95,25127.00
762.14,773.24,-192.65,25044.00
762.09,773.20,-193.35,24952.00
762.03,773.16,-194.05,24797.00
761.98,773.11,-194.75,24731.00
761.93,773.07,-195.45,24543.00
761.88,773.03,-196.15,24563.00
761.83,772.99,-196.85,24425.00
761.77,772.95,-197.55,24317.00
761.72,772.90,-198.25,24190.00
761.67,772.86,-198.95,24207.00
761.62,772.82,-199.65,24098.00
761.57,772.78,-200.35,24047.00
761.51,772.74,-201.05,23899.00
761.46,772.69,-201.75,24010.00
761.41,772.65,-202.45,24006.00
761.36,772.61,-203.15,24081.00
761.31,772.57,-203.86,23982.00
761.25,772.53,-204.56,24078.00
761.20,772.48,-205.26,24083.00
761.15,772.44,-205.96,24063.00
761.10,772.40,-206.66,24111.00
761.04,772.36,-207.36,24280.00
760.99,772.32,-208.06,24329.00
760.94,772.27,-208.77,24391.00
760.89,772.23,-209.47,24543.00
760.84,772.19,-210.17,24530.00
760.78,772.15,-210.87,24722.00
760.73,772.11,-211.57,24911.00
760.68,772.06,-212.27,24863.00
760.63,772.02,-212.98,25106.00
760.58,771.98,-213.68,25107.00
760.52,771.94,-214.38,25372.00
760.47,771.90,-215.08,25381.00
760.42,771.85,-215.79,25638.00
760.37,771.81,-216.49,25616.00
760.32,771.77,-217.19,25823.00
760.26,771.73,-217.89,25976.00
760.21,771.69,-218.60,26073.00
760.16,771.65,-219.30,26168.00
760.11,771.60,-220.00,26305.00
760.05,771.56,-220.70,26314.00
760.00,771.52,-221.41,26496.00
759.95,771.48,-222.11,26570.00
759.90,771.44,-222.81,26728.00
759.85,771.39,-223.52,26615.00
759.79,771.35,-224.22,26875.00
759.74,771.31,-224.92,26939.00
759.69,771.27,-225.63,26995.00
759.64,771.23,-226.33,27009.00
759.59,771.18,-227.03,27061.00
759.53,771.14,-227.74,27168.00
759.48,771.10,-228.44,27224.00
759.43,771.06,-229.15,27243.00
759.38,771.02,-229.85,27180.00
759.33,770.97,-230.55,27231.00
759.27,770.93,-231.26,27363.00
759.22,770.89,-231.96,27272.00
759.17,770.85,-232.67,27239.00
759.12,770.81,-233.37,27244.00
759.06,770.76,-234.07,27255.00
759.01,770.72,-234.78,27227.00
758.96,770.68,-235.48,27285.00
758.91,770.64,-236.19,27211.00
758.86,770.60,-236.89,27307.00
758.80,770.55,-237.60,27218.00
758.75,770.51,-238.30,27192.00
758.70,770.47,-239.01,27089.00
758.65,770.43,-239.71,27073.00
758.60,770.39,-240.42,26992.00
758.54,770.34,-241.12,27102.00
758.49,770.30,-241.83,27087.00
758.44,770.26,-242.53,27073.00
758.39,770.22,-243.24,27058.00
758.34,770.18,-243.94,27136.00
758.28,770.14,-244.65,26978.00
758.23,770.09,-245.35,26918.00
758.18,770.05,-246.06,27002.00
758.13,770.01,-246.77,26801.00
758.08,769.97,-247.47,26763.00
758.02,769.93,-248.18,26769.00
757.97,769.88,-248.88,26793.00
757.92,769.84,-249.59,26728.00
757.87,769.80,-250.30,26757.00
757.81,769.76,-251.00,26886.00
757.76,769.72,-251.71,26899.00
757.71,769.67,-252.42,26881.00
757.66,769.63,-253.12,27035.00
757.61,769.59,-253.83,27022.00
757.55,769.55,-254.53,26986.00
757.50,769.51,-255.24,27058.00
757.45,769.46,-255.95,27051.00
757.40,769.42,-256.65,27170.00
757.35,769.38,-257.36,27201.00
757.29,769.34,-258.07,27105.00
757.24,769.30,-258.78,27049.00
757.19,769.25,-259.48,27080.00
757.14,769.21,-260.19,27044.00
757.09,769.17,-260.90,27098.00
757.03,769.13,-261.60,27049.00
756.98,769.09,-262.31,27276.00
756.93,769.04,-263.02,27264.00
756.88,769.00,-263.73,27272.00
756.82,768.96,-264.44,27203.00
756.77,768.92,-265.14,27272.00
756.72,768.88,-265.85,27249.00
756.67,768.83,-266.56,27162.00
756.62,768.79,-267.27,27250.00
756.56,768.75,-267.97,27368.00
756.51,768.71,-268.68,27205.00
756.46,768.67,-269.39,27133.00
756.41,768.63,-270.10,27102.00
756.36,768.58,-270.81,27036.00
756.30,768.54,-271.52,26911.00
756.25,768.50,-272.22,26949.00
756.20,768.46,-272.93,26783.00
756.15,768.42,-273.64,26774.00
756.10,768.37,-274.35,26627.00
756.04,768.33,-275.06,26508.00
755.99,768.29,-275.77,26459.00
755.94,768.25,-276.48,26335.00
755.89,768.21,-277.19,26183.00
755.83,768.16,-277.90,26152.00
755.78,768.12,-278.60,26077.00
755.73,768.08,-279.31,26159.00
755.68,768.04,-280.02,25773.00
755.63,768.00,-280.73,25715.00
755.57,767.95,-281.44,25684.00
755.52,767.91,-282.15,25507.00
755.47,767.87,-282.86,25435.00
755.42,767.83,-283.57,25348.00
755.37,767.79,-284.28,25135.00
755.31,767.74,-284.99,25272.00
755.26,767.70,-285.70,25115.00
755.21,767.66,-286.41,25138.00
755.16,767.62,-287.12,24956.00
755.11,767.58,-287.83,25015.00
755.05,767.53,-288.54,24853.00
755.00,767.49,-289.25,24861.00
754.95,767.45,-289.96,24826.00
754.90,767.41,-290.67,24679.00
754.85,767.37,-291.38,24822.00
754.79,767.32,-292.09,24753.00
754.74,767.28,-292.81,24833.00
754.69,767.24,-293.52,24831.00
754.64,767.20,-294.23,24799.00
754.58,767.16,-294.94,24854.00
754.53,767.11,-295.65,24769.00
754.48,767.07,-296.36,24897.00
754.43,767.03,-297.07,24746.00
754.38,766.99,-297.78,24742.00
754.32,766.95,-298.49,24705.00
754.27,766.91,-299.21,24785.00
754.22,766.86,-299.92,24661.00
754.17,766.82,-300.63,24738.00
754.12,766.78,-301.34,24693.00
754.06,766.74,-302.05,24734.00
754.01,766.70,-302.76,24717.00
753.96,766.65,-303.48,24640.00
753.91,766.61,-304.19,24730.00
753.86,766.57,-304.90,24530.00
753.80,766.53,-305.61,24518.00
753.75,766.49,-306.33,24603.00
753.70,766.44,-307.04,24540.00
753.65,766.40,-307.75,24533.00
753.59,766.36,-308.46,24437.00
753.54,766.32,-309.18,24486.00
753.49,766.28,-309.89,24431.00
753.44,766.23,-310.60,24463.00
753.39,766.19,-311.31,24380.00
753.33,766.15,-312.03,24324.00
753.28,766.11,-312.74,24336.00
753.23,766.07,-313.45,24484.00
753.18,766.02,-314.17,24339.00
753.13,765.98,-314.88,24347.00
753.07,765.94,-315.59,24268.00
753.02,765.90,-316.31,24308.00
752.97,765.86,-317.02,24419.00
752.92,765.81,-317.73,24496.00
752.87,765.77,-318.45,24447.00
752.81,765.73,-319.16,24378.00
752.76,765.69,-319.87,24573.00
752.71,765.65,-320.59,24554.00
752.66,765.60,-321.30,24544.00
752.60,765.56,-322.01,24649.00
752.55,765.52,-322.73,24566.00
752.50,765.48,-323.44,24693.00
752.45,765.44,-324.16,24653.00
752.40,765.40,-324.87,24738.00
752.34,765.35,-325.59,24697.00
752.29,765.31,-326.30,24712.00
752.24,765.27,-327.01,24686.00
752.19,765.23,-327.73,24779.00
752.14,765.19,-328.44,24801.00
752.08,765.14,-329.16,24810.00
752.03,765.10,-329.87,24822.00
751.98,765.06,-330.59,24820.00
751.93,765.02,-331.30,24827.00
751.88,764.98,-332.02,24754.00
751.82,764.93,-332.73,24855.00
751.77,764.89,-333.45,24860.00
751.72,764.85,-334.16,24876.00
751.67,764.81,-334.88,24794.00
751.62,764.77,-335.60,24870.00
751.56,764.72,-336.31,24898.00
751.51,764.68,-337.03,24833.00
751.46,764.64,-337.74,24808.00
751.41,764.60,-338.46,24809.00
751.35,764.56,-339.17,24906.00
751.30,764.51,-339.89,24893.00
751.25,764.47,-340.61,24925.00
751.20,764.43,-341.32,25001.00
751.15,764.39,-342.04,25011.00
751.09,764.35,-342.75,24952.00
751.04,764.30,-343.47,25049.00
750.99,764.26,-344.19,25039.00
750.94,764.22,-344.90,25072.00
750.89,764.18,-345.62,25114.00
750.83,764.14,-346.34,25343.00
750.78,764.09,-347.05,25324.00
750.73,764.05,-347.77,25384.00
750.68,764.01,-348.49,25572.00
750.63,763.97,-349.20,25516.00
750.57,763.93,-349.92,25684.00
750.52,763.88,-350.64,25778.00
750.47,763.84,-351.36,25821.00
750.42,763.80,-352.07,25958.00
750.36,763.76,-352.79,26114.00
750.31,763.72,-353.51,26236.00
750.26,763.68,-354.22,26261.00
750.21,763.63,-354.94,26393.00
750.16,763.59,-355.66,26475.00
750.10,763.55,-356.38,26602.00
750.05,763.51,-357.10,26560.00
750.00,763.47,-357.81,26643.00
